----------------------------------------------------------------------
SPECTRUM: CWW_E_ext
FILTER:        SDSS z + CCD, [MT]  no atmosphere (Ref. F. Castander)
----------------------------------------------------------------------
      0.00000      0.00000
   0.00461578   0.00383225
   0.00925291   0.00772119
    0.0139114    0.0115110
    0.0185914    0.0154406
    0.0232930    0.0194604
    0.0280163    0.0236424
    0.0327615    0.0280511
    0.0375284    0.0325620
    0.0423174    0.0373201
    0.0471286    0.0420668
    0.0519619    0.0468968
    0.0568175    0.0516280
    0.0616956    0.0562097
    0.0665962    0.0606129
    0.0715193    0.0646447
    0.0764652    0.0684188
    0.0814340    0.0717300
    0.0864257    0.0746953
    0.0914403    0.0772439
    0.0964782    0.0794066
     0.101539    0.0812904
     0.106624    0.0828546
     0.111732    0.0843157
     0.116863    0.0856560
     0.122018    0.0870748
     0.127198    0.0886221
     0.132400    0.0903837
     0.137627    0.0924537
     0.142878    0.0947784
     0.148154    0.0974206
     0.153453     0.100206
     0.158777     0.103153
     0.164126     0.106112
     0.169499     0.109030
     0.174898     0.111872
     0.180321     0.114514
     0.185769     0.117088
     0.191242     0.119445
     0.196741     0.121745
     0.202264     0.123969
     0.207814     0.126145
     0.213389     0.128374
     0.218990     0.130556
     0.224616     0.132846
     0.230269     0.135146
     0.235947     0.137506
     0.241652     0.139927
     0.247383     0.142349
     0.253141     0.144875
     0.258925     0.147416
     0.264736     0.150085
     0.270574     0.152905
     0.276439     0.155885
     0.282331     0.159123
     0.288249     0.162543
     0.294196     0.166233
     0.300170     0.170110
     0.306171     0.174156
     0.312200     0.178354
     0.318257     0.182566
     0.324342     0.186795
     0.330454     0.190902
     0.336596     0.194875
     0.342765     0.198682
     0.348963     0.202280
     0.355189     0.205741
     0.361445     0.209055
     0.367729     0.212333
     0.374042     0.215624
     0.380384     0.219010
     0.386756     0.222602
     0.393157     0.226417
     0.399587     0.230525
     0.406048     0.234904
     0.412538     0.239550
     0.419057     0.244426
     0.425608     0.249463
     0.432188     0.254633
     0.438799     0.259857
     0.445440     0.265129
     0.452112     0.270404
     0.458814     0.275680
     0.465548     0.280956
     0.472312     0.286232
     0.479108     0.291523
     0.485936     0.296846
     0.492794     0.302245
     0.499685     0.307724
     0.506607     0.313313
     0.513561     0.318996
     0.520548     0.324792
     0.527566     0.330675
     0.534617     0.336640
     0.541700     0.342728
     0.548817     0.348928
     0.555966     0.355352
     0.563148     0.361994
     0.570363     0.368965
     0.577611     0.376362
     0.584893     0.384167
     0.592209     0.392460
     0.599558     0.401120
     0.606941     0.410158
     0.614359     0.419437
     0.621810     0.428879
     0.629296     0.438400
     0.636817     0.447861
     0.644372     0.457213
     0.651962     0.466329
     0.659587     0.475193
     0.667247     0.483743
     0.674943     0.491948
     0.682674     0.499846
     0.690441     0.507385
     0.698244     0.514621
     0.706082     0.521548
     0.713957     0.528199
     0.721869     0.534665
     0.729816     0.540931
     0.737801     0.547168
     0.745822     0.553374
     0.753881     0.559642
     0.761976     0.566030
     0.770109     0.572506
     0.778279     0.579197
     0.786488     0.586020
     0.794734     0.593068
     0.803018     0.600332
     0.811340     0.607826
     0.819701     0.615632
     0.828100     0.623706
     0.836538     0.632231
     0.845015     0.641179
     0.853532     0.650668
     0.862087     0.660769
     0.870682     0.671491
     0.879317     0.682973
     0.887991     0.695162
     0.896706     0.708205
     0.905461     0.722041
     0.914256     0.736725
     0.923092     0.752241
     0.931968     0.768507
     0.940886     0.785587
     0.949845     0.803328
     0.958845     0.821739
     0.967886     0.840722
     0.976970     0.860187
     0.986095     0.880094
     0.995262     0.900288
      1.00447     0.920758
      1.01372     0.941413
      1.02302     0.962234
      1.03236     0.983285
      1.04174      1.00458
      1.05116      1.02636
      1.06063      1.04873
      1.07014      1.07190
      1.07970      1.09618
      1.08930      1.12163
      1.09894      1.14854
      1.10863      1.17684
      1.11836      1.20661
      1.12814      1.23784
      1.13796      1.27018
      1.14783      1.30375
      1.15774      1.33802
      1.16770      1.37295
      1.17771      1.40814
      1.18776      1.44323
      1.19786      1.47819
      1.20800      1.51248
      1.21820      1.54625
      1.22844      1.57918
      1.23872      1.61133
      1.24905      1.64282
      1.25944      1.67348
      1.26986      1.70376
      1.28034      1.73348
      1.29087      1.76294
      1.30144      1.79216
      1.31206      1.82107
      1.32274      1.84985
      1.33346      1.87820
      1.34423      1.90622
      1.35505      1.93374
      1.36592      1.96067
      1.37684      1.98702
      1.38781      2.01264
      1.39883      2.03757
      1.40991      2.06177
      1.42103      2.08518
      1.43220      2.10790
      1.44343      2.12986
      1.45471      2.15109
      1.46604      2.17157
      1.47742      2.19127
      1.48886      2.21025
      1.50035      2.22838
      1.51189      2.24578
      1.52348      2.26243
      1.53513      2.27828
      1.54683      2.29353
      1.55859      2.30808
      1.57040      2.32220
      1.58226      2.33599
      1.59418      2.34964
      1.60615      2.36350
      1.61818      2.37764
      1.63027      2.39248
      1.64241      2.40809
      1.65461      2.42472
      1.66686      2.44245
      1.67917      2.46123
      1.69153      2.48115
      1.70396      2.50197
      1.71644      2.52371
      1.72898      2.54615
      1.74157      2.56925
      1.75423      2.59288
      1.76694      2.61695
      1.77971      2.64143
      1.79254      2.66629
      1.80543      2.69161
      1.81838      2.71736
      1.83139      2.74367
      1.84446      2.77053
      1.85759      2.79803
      1.87078      2.82624
      1.88403      2.85517
      1.89734      2.88496
      1.91072      2.91556
      1.92415      2.94708
      1.93765      2.97944
      1.95121      3.01270
      1.96483      3.04683
      1.97852      3.08176
      1.99226      3.11757
      2.00608      3.15412
      2.01995      3.19149
      2.03389      3.22958
      2.04789      3.26842
      2.06196      3.30804
      2.07610      3.34837
      2.09030      3.38949
      2.10456      3.43132
      2.11889      3.47393
      2.13329      3.51730
      2.14775      3.56142
      2.16228      3.60631
      2.17687      3.65187
      2.19154      3.69810
      2.20627      3.74493
      2.22107      3.79228
      2.23594      3.84013
      2.25087      3.88835
      2.26588      3.93691
      2.28095      3.98575
      2.29610      4.03477
      2.31131      4.08398
      2.32660      4.13327
      2.34195      4.18264
      2.35738      4.23200
      2.37287      4.28122
      2.38844      4.33027
      2.40408      4.37891
      2.41979      4.42712
      2.43558      4.47464
      2.45144      4.52131
      2.46737      4.56696
      2.48337      4.61130
      2.49945      4.65425
      2.51560      4.69552
      2.53183      4.73498
      2.54813      4.77248
      2.56451      4.80785
      2.58096      4.84103
      2.59749      4.87182
      2.61410      4.90030
      2.63078      4.92635
      2.64754      4.94998
      2.66438      4.97124
      2.68129      4.99010
      2.69828      5.00673
      2.71535      5.02111
      2.73250      5.03346
      2.74973      5.04389
      2.76704      5.05255
      2.78443      5.05965
      2.80189      5.06532
      2.81944      5.06981
      2.83707      5.07328
      2.85478      5.07592
      2.87258      5.07793
      2.89045      5.07942
      2.90841      5.08059
      2.92645      5.08154
      2.94457      5.08242
      2.96278      5.08333
      2.98107      5.08436
      2.99945      5.08563
      3.01791      5.08718
      3.03645      5.08910
      3.05509      5.09144
      3.07380      5.09423
      3.09261      5.09755
      3.11150      5.10138
      3.13048      5.10577
      3.14954      5.11073
      3.16869      5.11629
      3.18794      5.12246
      3.20727      5.12924
      3.22669      5.13665
      3.24620      5.14468
      3.26580      5.15334
      3.28549      5.16260
      3.30527      5.17245
      3.32514      5.18287
      3.34510      5.19384
      3.36516      5.20530
      3.38531      5.21722
      3.40555      5.22955
      3.42588      5.24222
      3.44631      5.25521
      3.46684      5.26844
      3.48745      5.28189
      3.50817      5.29550
      3.52898      5.30923
      3.54988      5.32305
      3.57088      5.33691
      3.59198      5.35078
      3.61318      5.36460
      3.63447      5.37834
      3.65586      5.39195
      3.67735      5.40540
      3.69894      5.41865
      3.72063      5.43166
      3.74242      5.44441
      3.76431      5.45687
      3.78630      5.46902
      3.80839      5.48086
      3.83059      5.49236
      3.85288      5.50351
      3.87529      5.51430
      3.89779      5.52472
      3.92039      5.53477
      3.94311      5.54443
      3.96592      5.55371
      3.98884      5.56260
      4.01187      5.57109
      4.03501      5.57920
      4.05825      5.58693
      4.08159      5.59430
      4.10505      5.60131
      4.12861      5.60796
      4.15229      5.61429
      4.17607      5.62029
      4.19996      5.62600
      4.22396      5.63142
      4.24808      5.63658
      4.27230      5.64149
      4.29663      5.64616
      4.32108      5.65061
      4.34564      5.65487
      4.37032      5.65895
      4.39511      5.66285
      4.42001      5.66660
      4.44503      5.67021
      4.47016      5.67367
      4.49541      5.67699
      4.52077      5.68016
      4.54626      5.68317
      4.57186      5.68601
      4.59758      5.68864
      4.62341      5.69104
      4.64937      5.69315
      4.67545      5.69496
      4.70164      5.69649
      4.72796      5.69773
      4.75440      5.69881
      4.78096      5.69974
      4.80764      5.70067
      4.83445      5.70167
      4.86138      5.70275
      4.88844      5.70398
      4.91562      5.70494
      4.94292      5.70583
      4.97035      5.70613
      4.99791      5.70598
      5.02560      5.70517
      5.05341      5.70328
      5.08135      5.70090
      5.10942      5.69737
      5.13762      5.69350
      5.16595      5.68881
      5.19441      5.68356
      5.22300      5.67816
      5.25173      5.67214
      5.28058      5.66634
      5.30957      5.66016
      5.33870      5.65416
      5.36796      5.64806
      5.39735      5.64175
      5.42688      5.63567
      5.45654      5.62929
      5.48634      5.62319
      5.51628      5.61689
      5.54636      5.61074
      5.57658      5.60483
      5.60693      5.59907
      5.63743      5.59394
      5.66807      5.58915
      5.69885      5.58530
      5.72977      5.58235
      5.76083      5.58043
      5.79204      5.57966
      5.82339      5.57982
      5.85488      5.58075
      5.88652      5.58228
      5.91831      5.58403
      5.95024      5.58595
      5.98232      5.58775
      6.01455      5.58936
      6.04693      5.59045
      6.07946      5.59079
      6.11213      5.59056
      6.14496      5.58941
      6.17794      5.58790
      6.21107      5.58534
      6.24436      5.58262
      6.27780      5.57929
      6.31139      5.57581
      6.34514      5.57221
      6.37904      5.56812
      6.41310      5.56445
      6.44732      5.56008
      6.48170      5.55598
      6.51623      5.55146
      6.55092      5.54697
      6.58578      5.54250
      6.62079      5.53757
      6.65597      5.53307
      6.69130      5.52786
      6.72681      5.52289
      6.76247      5.51748
      6.79830      5.51190
      6.83430      5.50637
      6.87046      5.50049
      6.90679      5.49531
      6.94328      5.48995
      6.97995      5.48545
      7.01678      5.48149
      7.05378      5.47812
      7.09096      5.47572
      7.12831      5.47348
      7.16582      5.47224
      7.20352      5.47114
      7.24138      5.47088
      7.27942      5.47118
      7.31764      5.47216
      7.35603      5.47413
      7.39460      5.47661
      7.43335      5.48001
      7.47227      5.48363
      7.51138      5.48741
      7.55067      5.49140
      7.59014      5.49496
      7.62979      5.49872
      7.66962      5.50213
      7.70964      5.50565
      7.74984      5.50984
      7.79023      5.51436
      7.83080      5.52051
      7.87156      5.52760
      7.91251      5.53671
      7.95365      5.54769
      7.99498      5.56047
      8.03649      5.57572
      8.07821      5.59216
      8.12011      5.61095
      8.16220      5.63089
      8.20450      5.65209
      8.24698      5.67449
      8.28966      5.69717
      8.33254      5.72087
      8.37562      5.74437
      8.41890      5.76836
      8.46237      5.79230
      8.50605      5.81596
      8.54993      5.83982
      8.59401      5.86293
      8.63829      5.88619
      8.68278      5.90882
      8.72747      5.93111
      8.77237      5.95304
      8.81748      5.97426
      8.86279      5.99525
      8.90832      6.01517
      8.95405      6.03466
      9.00000      6.05320
      9.04616      6.07080
      9.09253      6.08753
      9.13911      6.10302
      9.18591      6.11753
      9.23293      6.13085
      9.28016      6.14309
      9.32762      6.15426
      9.37529      6.16424
      9.42317      6.17317
      9.47128      6.18105
      9.51962      6.18789
      9.56818      6.19376
      9.61696      6.19858
      9.66596      6.20246
      9.71519      6.20541
      9.76465      6.20739
      9.81434      6.20852
      9.86426      6.20864
      9.91440      6.20790
      9.96478      6.20627
      10.0154      6.20389
      10.0662      6.20083
      10.1173      6.19714
      10.1686      6.19301
      10.2202      6.18846
      10.2720      6.18366
      10.3240      6.17865
      10.3763      6.17354
      10.4288      6.16842
      10.4815      6.16332
      10.5345      6.15835
      10.5878      6.15353
      10.6413      6.14892
      10.6950      6.14448
      10.7490      6.14020
      10.8032      6.13607
      10.8577      6.13201
      10.9124      6.12807
      10.9674      6.12419
      11.0226      6.12033
      11.0781      6.11652
      11.1339      6.11263
      11.1899      6.10879
      11.2462      6.10489
      11.3027      6.10100
      11.3595      6.09717
      11.4165      6.09330
      11.4738      6.08960
      11.5314      6.08589
      11.5893      6.08230
      11.6474      6.07880
      11.7057      6.07530
      11.7644      6.07195
      11.8233      6.06852
      11.8825      6.06522
      11.9420      6.06192
      12.0017      6.05868
      12.0617      6.05559
      12.1220      6.05247
      12.1826      6.04956
      12.2434      6.04666
      12.3045      6.04396
      12.3660      6.04142
      12.4277      6.03900
      12.4896      6.03685
      12.5519      6.03475
      12.6144      6.03291
      12.6773      6.03108
      12.7404      6.02935
      12.8038      6.02766
      12.8676      6.02583
      12.9316      6.02402
      12.9959      6.02194
      13.0605      6.01983
      13.1254      6.01753
      13.1906      6.01510
      13.2561      6.01262
      13.3219      6.00998
      13.3880      6.00740
      13.4544      6.00475
      13.5211      6.00221
      13.5881      5.99978
      13.6555      5.99747
      13.7231      5.99543
      13.7911      5.99357
      13.8594      5.99206
      13.9279      5.99080
      13.9968      5.98985
      14.0661      5.98918
      14.1356      5.98867
      14.2055      5.98838
      14.2757      5.98813
      14.3462      5.98793
      14.4170      5.98768
      14.4882      5.98731
      14.5597      5.98680
      14.6315      5.98608
      14.7036      5.98519
      14.7761      5.98409
      14.8489      5.98280
      14.9221      5.98140
      14.9956      5.97989
      15.0694      5.97838
      15.1436      5.97692
      15.2181      5.97557
      15.2930      5.97442
      15.3682      5.97343
      15.4437      5.97268
      15.5196      5.97214
      15.5959      5.97183
      15.6725      5.97177
      15.7494      5.97186
      15.8267      5.97217
      15.9044      5.97257
      15.9824      5.97313
      16.0608      5.97374
      16.1396      5.97442
      16.2187      5.97519
      16.2982      5.97596
      16.3780      5.97682
      16.4582      5.97767
      16.5388      5.97862
      16.6198      5.97961
      16.7011      5.98065
      16.7828      5.98178
      16.8649      5.98289
      16.9473      5.98408
      17.0302      5.98524
      17.1134      5.98640
      17.1970      5.98755
      17.2810      5.98864
      17.3654      5.98973
      17.4502      5.99073
      17.5353      5.99175
      17.6209      5.99274
      17.7068      5.99377
      17.7932      5.99486
      17.8799      5.99599
      17.9671      5.99725
      18.0546      5.99857
      18.1426      6.00003
      18.2309      6.00159
      18.3197      6.00325
      18.4089      6.00500
      18.4984      6.00677
      18.5884      6.00859
      18.6789      6.01038
      18.7697      6.01217
      18.8609      6.01391
      18.9526      6.01560
      19.0447      6.01726
      19.1372      6.01888
      19.2302      6.02050
      19.3236      6.02212
      19.4174      6.02380
      19.5116      6.02556
      19.6063      6.02746
      19.7014      6.02952
      19.7970      6.03178
      19.8930      6.03429
      19.9894      6.03706
      20.0863      6.04011
      20.1836      6.04344
      20.2814      6.04706
      20.3796      6.05095
      20.4783      6.05508
      20.5774      6.05942
      20.6770      6.06392
      20.7771      6.06855
      20.8776      6.07324
      20.9786      6.07799
      21.0800      6.08277
      21.1820      6.08755
      21.2844      6.09237
      21.3872      6.09719
      21.4905      6.10207
      21.5944      6.10701
      21.6986      6.11205
      21.8034      6.11723
      21.9087      6.12256
      22.0144      6.12809
      22.1206      6.13380
      22.2274      6.13973
      22.3346      6.14588
      22.4423      6.15222
      22.5505      6.15876
      22.6592      6.16546
      22.7684      6.17234
      22.8781      6.17933
      22.9883      6.18643
      23.0991      6.19361
      23.2103      6.20083
      23.3220      6.20812
      23.4343      6.21540
      23.5471      6.22270
      23.6604      6.22998
      23.7742      6.23725
      23.8886      6.24450
      24.0035      6.25170
      24.1189      6.25889
      24.2348      6.26605
      24.3513      6.27318
      24.4683      6.28029
      24.5859      6.28738
      24.7040      6.29447
      24.8226      6.30153
      24.9418      6.30860
      25.0615      6.31565
      25.1818      6.32271
      25.3027      6.32977
      25.4241      6.33683
      25.5461      6.34389
      25.6686      6.35095
      25.7917      6.35802
      25.9153      6.36510
      26.0396      6.37219
      26.1644      6.37929
      26.2898      6.38640
      26.4157      6.39353
      26.5423      6.40066
      26.6694      6.40780
      26.7971      6.41493
      26.9254      6.42206
      27.0543      6.42920
      27.1838      6.43633
      27.3139      6.44347
      27.4446      6.45063
      27.5759      6.45782
      27.7078      6.46507
      27.8403      6.47240
      27.9734      6.47982
      28.1072      6.48737
      28.2415      6.49506
      28.3765      6.50292
      28.5121      6.51093
      28.6483      6.51911
      28.7852      6.52744
      28.9226      6.53592
      29.0608      6.54454
      29.1995      6.55327
      29.3389      6.56213
      29.4789      6.57110
      29.6196      6.58019
      29.7610      6.58941
      29.9030      6.59875
      30.0456      6.60826
      30.1889      6.61790
      30.3329      6.62774
      30.4775      6.63777
      30.6228      6.64800
      30.7687      6.65846
      30.9154      6.66911
      31.0627      6.68000
      31.2107      6.69108
      31.3594      6.70237
      31.5087      6.71384
      31.6588      6.72550
      31.8095      6.73733
      31.9610      6.74932
      32.1131      6.76148
      32.2660      6.77377
      32.4195      6.78620
      32.5738      6.79878
      32.7287      6.81146
      32.8844      6.82429
      33.0408      6.83721
      33.1979      6.85025
      33.3558      6.86339
      33.5144      6.87663
      33.6737      6.88996
      33.8337      6.90338
      33.9945      6.91689
      34.1560      6.93047
      34.3183      6.94414
      34.4813      6.95788
      34.6451      6.97169
      34.8096      6.98558
      34.9749      6.99953
      35.1410      7.01355
      35.3078      7.02764
      35.4754      7.04181
      35.6438      7.05604
      35.8129      7.07034
      35.9828      7.08472
      36.1535      7.09916
      36.3250      7.11368
      36.4973      7.12827
      36.6704      7.14294
      36.8443      7.15768
      37.0189      7.17249
      37.1944      7.18738
      37.3707      7.20234
      37.5478      7.21737
      37.7258      7.23249
      37.9045      7.24769
      38.0841      7.26297
      38.2645      7.27835
      38.4457      7.29382
      38.6278      7.30938
      38.8107      7.32505
      38.9945      7.34083
      39.1791      7.35672
      39.3645      7.37272
      39.5509      7.38884
      39.7380      7.40508
      39.9261      7.42145
      40.1150      7.43793
      40.3048      7.45454
      40.4954      7.47128
      40.6869      7.48814
      40.8794      7.50513
      41.0727      7.52225
      41.2669      7.53951
      41.4620      7.55689
      41.6580      7.57442
      41.8549      7.59207
      42.0527      7.60986
      42.2514      7.62778
      42.4510      7.64584
      42.6516      7.66404
      42.8531      7.68237
      43.0555      7.70084
      43.2588      7.71945
      43.4631      7.73820
      43.6684      7.75709
      43.8745      7.77612
      44.0817      7.79530
      44.2898      7.81461
      44.4988      7.83408
      44.7088      7.85369
      44.9198      7.87345
      45.1318      7.89336
      45.3447      7.91340
      45.5586      7.93360
      45.7735      7.95395
      45.9894      7.97444
      46.2063      7.99508
      46.4242      8.01587
      46.6431      8.03681
      46.8630      8.05790
      47.0839      8.07914
      47.3059      8.10053
      47.5289      8.12207
      47.7528      8.14376
      47.9779      8.16561
      48.2040      8.18761
      48.4311      8.20976
      48.6592      8.23206
      48.8884      8.25452
      49.1187      8.27714
      49.3501      8.29991
      49.5825      8.32283
      49.8159      8.34592
      50.0505      8.36917
      50.2861      8.39257
      50.5229      8.41614
      50.7607      8.43986
      50.9996      8.46375
      51.2396      8.48779
      51.4808      8.51200
      51.7230      8.53638
      51.9663      8.56091
      52.2108      8.58561
      52.4564      8.61047
      52.7032      8.63549
      52.9511      8.66068
      53.2001      8.68604
      53.4503      8.71156
      53.7016      8.73726
      53.9541      8.76311
      54.2077      8.78914
      54.4626      8.81534
      54.7186      8.84171
      54.9758      8.86826
      55.2341      8.89497
      55.4937      8.92186
      55.7545      8.94892
      56.0164      8.97616
      56.2796      9.00357
      56.5440      9.03116
      56.8096      9.05894
      57.0765      9.08689
      57.3445      9.11503
      57.6138      9.14334
      57.8844      9.17184
      58.1562      9.20052
      58.4292      9.22939
      58.7035      9.25844
      58.9791      9.28767
      59.2560      9.31710
      59.5341      9.34670
      59.8135      9.37650
      60.0942      9.40648
      60.3762      9.43665
      60.6595      9.46701
      60.9441      9.49756
      61.2300      9.52831
      61.5173      9.55924
      61.8058      9.59038
      62.0957      9.62170
      62.3870      9.65322
      62.6796      9.68493
      62.9735      9.71683
      63.2688      9.74894
      63.5654      9.78123
      63.8634      9.81373
      64.1628      9.84643
      64.4636      9.87932
      64.7658      9.91241
      65.0694      9.94569
      65.3743      9.97917
      65.6807      10.0128
      65.9885      10.0467
      66.2977      10.0808
      66.6083      10.1150
      66.9204      10.1495
      67.2339      10.1842
      67.5488      10.2190
      67.8652      10.2541
      68.1831      10.2894
      68.5024      10.3249
      68.8232      10.3605
      69.1455      10.3964
      69.4693      10.4325
      69.7946      10.4688
      70.1214      10.5054
      70.4496      10.5421
      70.7794      10.5790
      71.1108      10.6161
      71.4436      10.6535
      71.7780      10.6910
      72.1139      10.7288
      72.4514      10.7668
      72.7904      10.8050
      73.1310      10.8434
      73.4732      10.8820
      73.8169      10.9209
      74.1623      10.9600
      74.5092      10.9993
      74.8578      11.0389
      75.2079      11.0787
      75.5597      11.1187
      75.9130      11.1590
      76.2681      11.1996
      76.6247      11.2403
      76.9830      11.2814
      77.3430      11.3226
      77.7046      11.3641
      78.0679      11.4059
      78.4328      11.4478
      78.7995      11.4901
      79.1678      11.5325
      79.5378      11.5753
      79.9096      11.6182
      80.2830      11.6614
      80.6582      11.7049
      81.0352      11.7486
      81.4138      11.7925
      81.7942      11.8367
      82.1764      11.8812
      82.5603      11.9259
      82.9460      11.9708
      83.3335      12.0160
      83.7227      12.0614
      84.1138      12.1071
      84.5067      12.1531
      84.9014      12.1993
      85.2979      12.2457
      85.6962      12.2924
      86.0964      12.3394
      86.4984      12.3866
      86.9023      12.4340
      87.3080      12.4817
      87.7156      12.5296
      88.1251      12.5778
      88.5365      12.6263
      88.9498      12.6750
      89.3649      12.7239
      89.7820      12.7732
      90.2011      12.8229
      90.6221      12.8729
      91.0450      12.9233
      91.4698      12.9743
      91.8967      13.0259
      92.3254      13.0781
      92.7562      13.1310
      93.1890      13.1848
      93.6237      13.2397
      94.0605      13.2956
      94.4993      13.3529
      94.9401      13.4116
      95.3829      13.4720
      95.8278      13.5343
      96.2747      13.5988
      96.7237      13.6658
      97.1748      13.7356
      97.6279      13.8088
      98.0832      13.8858
      98.5406      13.9672

----------------------------------------------------------------------
SPECTRUM: CWW_Sbc_ext
FILTER:        SDSS z + CCD, [MT]  no atmosphere (Ref. F. Castander)
----------------------------------------------------------------------
      0.00000      0.00000
   0.00461578   0.00363954
   0.00925291   0.00728673
    0.0139114    0.0109378
    0.0185914    0.0145912
    0.0232930    0.0182425
    0.0280163    0.0218885
    0.0327615    0.0255280
    0.0375284    0.0291568
    0.0423174    0.0327768
    0.0471286    0.0363827
    0.0519619    0.0399759
    0.0568175    0.0435540
    0.0616956    0.0471177
    0.0665962    0.0506691
    0.0715193    0.0542058
    0.0764652    0.0577321
    0.0814340    0.0612442
    0.0864257    0.0647464
    0.0914403    0.0682388
    0.0964782    0.0717194
     0.101539    0.0751931
     0.106624    0.0786554
     0.111732    0.0821127
     0.116863    0.0855608
     0.122018    0.0890046
     0.127198    0.0924418
     0.132400    0.0958724
     0.137627    0.0993016
     0.142878     0.102723
     0.148154     0.106147
     0.153453     0.109564
     0.158777     0.112982
     0.164126     0.116398
     0.169499     0.119811
     0.174898     0.123224
     0.180321     0.126633
     0.185769     0.130041
     0.191242     0.133442
     0.196741     0.136839
     0.202264     0.140229
     0.207814     0.143611
     0.213389     0.146987
     0.218990     0.150354
     0.224616     0.153714
     0.230269     0.157064
     0.235947     0.160407
     0.241652     0.163742
     0.247383     0.167065
     0.253141     0.170383
     0.258925     0.173689
     0.264736     0.176988
     0.270574     0.180278
     0.276439     0.183558
     0.282331     0.186832
     0.288249     0.190095
     0.294196     0.193352
     0.300170     0.196600
     0.306171     0.199840
     0.312200     0.203075
     0.318257     0.206301
     0.324342     0.209522
     0.330454     0.212736
     0.336596     0.215944
     0.342765     0.219147
     0.348963     0.222344
     0.355189     0.225535
     0.361445     0.228719
     0.367729     0.231892
     0.374042     0.235054
     0.380384     0.238198
     0.386756     0.241316
     0.393157     0.244400
     0.399587     0.247437
     0.406048     0.250420
     0.412538     0.253332
     0.419057     0.256163
     0.425608     0.258899
     0.432188     0.261525
     0.438799     0.264033
     0.445440     0.266408
     0.452112     0.268649
     0.458814     0.270744
     0.465548     0.272703
     0.472312     0.274526
     0.479108     0.276226
     0.485936     0.277839
     0.492794     0.279386
     0.499685     0.280892
     0.506607     0.282407
     0.513561     0.283950
     0.520548     0.285582
     0.527566     0.287339
     0.534617     0.289263
     0.541700     0.291441
     0.548817     0.293866
     0.555966     0.296550
     0.563148     0.299470
     0.570363     0.302623
     0.577611     0.305996
     0.584893     0.309508
     0.592209     0.313123
     0.599558     0.316815
     0.606941     0.320534
     0.614359     0.324258
     0.621810     0.327931
     0.629296     0.331515
     0.636817     0.335016
     0.644372     0.338409
     0.651962     0.341688
     0.659587     0.344891
     0.667247     0.348048
     0.674943     0.351135
     0.682674     0.354171
     0.690441     0.357176
     0.698244     0.360163
     0.706082     0.363072
     0.713957     0.365973
     0.721869     0.368761
     0.729816     0.371519
     0.737801     0.374195
     0.745822     0.376792
     0.753881     0.379380
     0.761976     0.381881
     0.770109     0.384412
     0.778279     0.386865
     0.786488     0.389344
     0.794734     0.391825
     0.803018     0.394283
     0.811340     0.396824
     0.819701     0.399355
     0.828100     0.402028
     0.836538     0.404777
     0.845015     0.407717
     0.853532     0.410914
     0.862087     0.414370
     0.870682     0.418241
     0.879317     0.422474
     0.887991     0.427196
     0.896706     0.432342
     0.905461     0.437920
     0.914256     0.443916
     0.923092     0.450198
     0.931968     0.456786
     0.940886     0.463509
     0.949845     0.470401
     0.958845     0.477374
     0.967886     0.484425
     0.976970     0.491624
     0.986095     0.498886
     0.995262     0.506343
      1.00447     0.513893
      1.01372     0.521616
      1.02302     0.529507
      1.03236     0.537538
      1.04174     0.545828
      1.05116     0.554329
      1.06063     0.563233
      1.07014     0.572491
      1.07970     0.582287
      1.08930     0.592588
      1.09894     0.603444
      1.10863     0.614844
      1.11836     0.626703
      1.12814     0.639138
      1.13796     0.651933
      1.14783     0.665280
      1.15774     0.678978
      1.16770     0.693095
      1.17771     0.707602
      1.18776     0.722323
      1.19786     0.737476
      1.20800     0.752803
      1.21820     0.768540
      1.22844     0.784558
      1.23872     0.800943
      1.24905     0.817808
      1.25944     0.834987
      1.26986     0.852769
      1.28034     0.870843
      1.29087     0.889391
      1.30144     0.908168
      1.31206     0.927165
      1.32274     0.946365
      1.33346     0.965560
      1.34423     0.984983
      1.35505      1.00433
      1.36592      1.02385
      1.37684      1.04338
      1.38781      1.06304
      1.39883      1.08288
      1.40991      1.10277
      1.42103      1.12295
      1.43220      1.14316
      1.44343      1.16362
      1.45471      1.18418
      1.46604      1.20486
      1.47742      1.22573
      1.48886      1.24660
      1.50035      1.26767
      1.51189      1.28868
      1.52348      1.30981
      1.53513      1.33091
      1.54683      1.35200
      1.55859      1.37314
      1.57040      1.39416
      1.58226      1.41522
      1.59418      1.43614
      1.60615      1.45702
      1.61818      1.47778
      1.63027      1.49842
      1.64241      1.51901
      1.65461      1.53943
      1.66686      1.55977
      1.67917      1.57992
      1.69153      1.59993
      1.70396      1.61975
      1.71644      1.63933
      1.72898      1.65871
      1.74157      1.67780
      1.75423      1.69665
      1.76694      1.71520
      1.77971      1.73345
      1.79254      1.75140
      1.80543      1.76902
      1.81838      1.78632
      1.83139      1.80326
      1.84446      1.81985
      1.85759      1.83608
      1.87078      1.85195
      1.88403      1.86746
      1.89734      1.88257
      1.91072      1.89729
      1.92415      1.91160
      1.93765      1.92547
      1.95121      1.93892
      1.96483      1.95191
      1.97852      1.96448
      1.99226      1.97661
      2.00608      1.98832
      2.01995      1.99963
      2.03389      2.01054
      2.04789      2.02106
      2.06196      2.03122
      2.07610      2.04101
      2.09030      2.05046
      2.10456      2.05958
      2.11889      2.06840
      2.13329      2.07691
      2.14775      2.08514
      2.16228      2.09311
      2.17687      2.10083
      2.19154      2.10832
      2.20627      2.11560
      2.22107      2.12267
      2.23594      2.12956
      2.25087      2.13627
      2.26588      2.14284
      2.28095      2.14925
      2.29610      2.15554
      2.31131      2.16170
      2.32660      2.16775
      2.34195      2.17370
      2.35738      2.17955
      2.37287      2.18531
      2.38844      2.19100
      2.40408      2.19660
      2.41979      2.20214
      2.43558      2.20761
      2.45144      2.21302
      2.46737      2.21837
      2.48337      2.22365
      2.49945      2.22888
      2.51560      2.23405
      2.53183      2.23916
      2.54813      2.24422
      2.56451      2.24922
      2.58096      2.25416
      2.59749      2.25906
      2.61410      2.26390
      2.63078      2.26869
      2.64754      2.27343
      2.66438      2.27811
      2.68129      2.28275
      2.69828      2.28733
      2.71535      2.29186
      2.73250      2.29633
      2.74973      2.30075
      2.76704      2.30510
      2.78443      2.30938
      2.80189      2.31358
      2.81944      2.31770
      2.83707      2.32173
      2.85478      2.32567
      2.87258      2.32951
      2.89045      2.33325
      2.90841      2.33689
      2.92645      2.34042
      2.94457      2.34384
      2.96278      2.34715
      2.98107      2.35036
      2.99945      2.35344
      3.01791      2.35642
      3.03645      2.35929
      3.05509      2.36204
      3.07380      2.36469
      3.09261      2.36724
      3.11150      2.36968
      3.13048      2.37204
      3.14954      2.37431
      3.16869      2.37650
      3.18794      2.37862
      3.20727      2.38069
      3.22669      2.38271
      3.24620      2.38468
      3.26580      2.38662
      3.28549      2.38854
      3.30527      2.39044
      3.32514      2.39234
      3.34510      2.39424
      3.36516      2.39618
      3.38531      2.39815
      3.40555      2.40018
      3.42588      2.40228
      3.44631      2.40447
      3.46684      2.40676
      3.48745      2.40917
      3.50817      2.41172
      3.52898      2.41442
      3.54988      2.41730
      3.57088      2.42039
      3.59198      2.42371
      3.61318      2.42729
      3.63447      2.43113
      3.65586      2.43518
      3.67735      2.43945
      3.69894      2.44388
      3.72063      2.44843
      3.74242      2.45312
      3.76431      2.45780
      3.78630      2.46247
      3.80839      2.46705
      3.83059      2.47141
      3.85288      2.47554
      3.87529      2.47929
      3.89779      2.48275
      3.92039      2.48590
      3.94311      2.48864
      3.96592      2.49129
      3.98884      2.49353
      4.01187      2.49577
      4.03501      2.49783
      4.05825      2.49964
      4.08159      2.50166
      4.10505      2.50322
      4.12861      2.50501
      4.15229      2.50653
      4.17607      2.50814
      4.19996      2.50997
      4.22396      2.51143
      4.24808      2.51360
      4.27230      2.51564
      4.29663      2.51821
      4.32108      2.52095
      4.34564      2.52365
      4.37032      2.52672
      4.39511      2.52895
      4.42001      2.53122
      4.44503      2.53252
      4.47016      2.53324
      4.49541      2.53311
      4.52077      2.53162
      4.54626      2.52982
      4.57186      2.52639
      4.59758      2.52274
      4.62341      2.51794
      4.64937      2.51264
      4.67545      2.50700
      4.70164      2.50041
      4.72796      2.49417
      4.75440      2.48719
      4.78096      2.48066
      4.80764      2.47411
      4.83445      2.46781
      4.86138      2.46206
      4.88844      2.45626
      4.91562      2.45085
      4.94292      2.44528
      4.97035      2.43962
      4.99791      2.43372
      5.02560      2.42739
      5.05341      2.42053
      5.08135      2.41316
      5.10942      2.40528
      5.13762      2.39720
      5.16595      2.38881
      5.19441      2.38019
      5.22300      2.37170
      5.25173      2.36319
      5.28058      2.35513
      5.30957      2.34731
      5.33870      2.33993
      5.36796      2.33292
      5.39735      2.32610
      5.42688      2.31980
      5.45654      2.31373
      5.48634      2.30824
      5.51628      2.30306
      5.54636      2.29836
      5.57658      2.29435
      5.60693      2.29102
      5.63743      2.28881
      5.66807      2.28762
      5.69885      2.28792
      5.72977      2.29001
      5.76083      2.29377
      5.79204      2.29944
      5.82339      2.30668
      5.85488      2.31504
      5.88652      2.32442
      5.91831      2.33385
      5.95024      2.34350
      5.98232      2.35259
      6.01455      2.36118
      6.04693      2.36882
      6.07946      2.37501
      6.11213      2.38042
      6.14496      2.38411
      6.17794      2.38737
      6.21107      2.38899
      6.24436      2.39033
      6.27780      2.39085
      6.31139      2.39094
      6.34514      2.39102
      6.37904      2.39020
      6.41310      2.39003
      6.44732      2.38885
      6.48170      2.38796
      6.51623      2.38655
      6.55092      2.38504
      6.58578      2.38365
      6.62079      2.38149
      6.65597      2.37993
      6.69130      2.37740
      6.72681      2.37512
      6.76247      2.37228
      6.79830      2.36911
      6.83430      2.36611
      6.87046      2.36265
      6.90679      2.36032
      6.94328      2.35795
      6.97995      2.35697
      7.01678      2.35701
      7.05378      2.35802
      7.09096      2.36052
      7.12831      2.36324
      7.16582      2.36735
      7.20352      2.37150
      7.24138      2.37677
      7.27942      2.38273
      7.31764      2.38965
      7.35603      2.39808
      7.39460      2.40740
      7.43335      2.41836
      7.47227      2.42988
      7.51138      2.44208
      7.55067      2.45496
      7.59014      2.46763
      7.62979      2.48099
      7.66962      2.49409
      7.70964      2.50766
      7.74984      2.52243
      7.79023      2.53784
      7.83080      2.55586
      7.87156      2.57528
      7.91251      2.59787
      7.95365      2.62330
      7.99498      2.65154
      8.03649      2.68383
      8.07821      2.71797
      8.12011      2.75629
      8.16220      2.79675
      8.20450      2.83984
      8.24698      2.88558
      8.28966      2.93249
      8.33254      2.98226
      8.37562      3.03250
      8.41890      3.08499
      8.46237      3.13860
      8.50605      3.19306
      8.54993      3.24953
      8.59401      3.30584
      8.63829      3.36440
      8.68278      3.42318
      8.72747      3.48317
      8.77237      3.54425
      8.81748      3.60557
      8.86279      3.66877
      8.90832      3.73120
      8.95405      3.79522
      9.00000      3.85906
      9.04616      3.92291
      9.09253      3.98705
      9.13911      4.04994
      9.18591      4.11278
      9.23293      4.17405
      9.28016      4.23447
      9.32762      4.29337
      9.37529      4.34995
      9.42317      4.40458
      9.47128      4.45655
      9.51962      4.50611
      9.56818      4.55285
      9.61696      4.59631
      9.66596      4.63659
      9.71519      4.67347
      9.76465      4.70665
      9.81434      4.73636
      9.86426      4.76161
      9.91440      4.78282
      9.96478      4.79982
      10.0154      4.81309
      10.0662      4.82311
      10.1173      4.83010
      10.1686      4.83492
      10.2202      4.83777
      10.2720      4.83937
      10.3240      4.83998
      10.3763      4.83998
      10.4288      4.83981
      10.4815      4.83955
      10.5345      4.83968
      10.5878      4.84023
      10.6413      4.84135
      10.6950      4.84305
      10.7490      4.84517
      10.8032      4.84778
      10.8577      4.85059
      10.9124      4.85373
      10.9674      4.85703
      11.0226      4.86035
      11.0781      4.86377
      11.1339      4.86679
      11.1899      4.86994
      11.2462      4.87278
      11.3027      4.87553
      11.3595      4.87834
      11.4165      4.88089
      11.4738      4.88389
      11.5314      4.88668
      11.5893      4.88977
      11.6474      4.89303
      11.7057      4.89611
      11.7644      4.89955
      11.8233      4.90250
      11.8825      4.90575
      11.9420      4.90877
      12.0017      4.91175
      12.0617      4.91503
      12.1220      4.91797
      12.1826      4.92143
      12.2434      4.92470
      12.3045      4.92849
      12.3660      4.93272
      12.4277      4.93725
      12.4896      4.94271
      12.5519      4.94830
      12.6144      4.95484
      12.6773      4.96153
      12.7404      4.96861
      12.8038      4.97595
      12.8676      4.98283
      12.9316      4.98982
      12.9959      4.99587
      13.0605      5.00174
      13.1254      5.00679
      13.1906      5.01125
      13.2561      5.01533
      13.3219      5.01865
      13.3880      5.02197
      13.4544      5.02475
      13.5211      5.02772
      13.5881      5.03081
      13.6555      5.03416
      13.7231      5.03825
      13.7911      5.04283
      13.8594      5.04859
      13.9279      5.05520
      13.9968      5.06289
      14.0661      5.07158
      14.1356      5.08096
      14.2055      5.09115
      14.2757      5.10159
      14.3462      5.11226
      14.4170      5.12278
      14.4882      5.13286
      14.5597      5.14238
      14.6315      5.15102
      14.7036      5.15884
      14.7761      5.16570
      14.8489      5.17165
      14.9221      5.17696
      14.9956      5.18171
      15.0694      5.18635
      15.1436      5.19122
      15.2181      5.19663
      15.2930      5.20304
      15.3682      5.21032
      15.4437      5.21887
      15.5196      5.22855
      15.5959      5.23939
      15.6725      5.25151
      15.7494      5.26429
      15.8267      5.27818
      15.9044      5.29231
      15.9824      5.30706
      16.0608      5.32193
      16.1396      5.33682
      16.2187      5.35194
      16.2982      5.36665
      16.3780      5.38162
      16.4582      5.39612
      16.5388      5.41073
      16.6198      5.42532
      16.7011      5.43969
      16.7828      5.45427
      16.8649      5.46830
      16.9473      5.48241
      17.0302      5.49590
      17.1134      5.50905
      17.1970      5.52180
      17.2810      5.53371
      17.3654      5.54527
      17.4502      5.55579
      17.5353      5.56600
      17.6209      5.57557
      17.7068      5.58478
      17.7932      5.59388
      17.8799      5.60260
      17.9671      5.61155
      18.0546      5.62027
      18.1426      5.62921
      18.2309      5.63819
      18.3197      5.64714
      18.4089      5.65611
      18.4984      5.66465
      18.5884      5.67295
      18.6789      5.68056
      18.7697      5.68761
      18.8609      5.69394
      18.9526      5.69950
      19.0447      5.70437
      19.1372      5.70853
      19.2302      5.71226
      19.3236      5.71558
      19.4174      5.71879
      19.5116      5.72210
      19.6063      5.72575
      19.7014      5.73001
      19.7970      5.73512
      19.8930      5.74129
      19.9894      5.74861
      20.0863      5.75726
      20.1836      5.76721
      20.2814      5.77860
      20.3796      5.79129
      20.4783      5.80517
      20.5774      5.82009
      20.6770      5.83571
      20.7771      5.85198
      20.8776      5.86844
      20.9786      5.88510
      21.0800      5.90170
      21.1820      5.91815
      21.2844      5.93456
      21.3872      5.95071
      21.4905      5.96697
      21.5944      5.98329
      21.6986      5.99999
      21.8034      6.01728
      21.9087      6.03521
      22.0144      6.05425
      22.1206      6.07419
      22.2274      6.09542
      22.3346      6.11785
      22.4423      6.14148
      22.5505      6.16641
      22.6592      6.19230
      22.7684      6.21935
      22.8781      6.24713
      22.9883      6.27567
      23.0991      6.30475
      23.2103      6.33407
      23.3220      6.36377
      23.4343      6.39331
      23.5471      6.42289
      23.6604      6.45220
      23.7742      6.48117
      23.8886      6.50980
      24.0035      6.53780
      24.1189      6.56540
      24.2348      6.59228
      24.3513      6.61861
      24.4683      6.64432
      24.5859      6.66933
      24.7040      6.69379
      24.8226      6.71746
      24.9418      6.74056
      25.0615      6.76292
      25.1818      6.78462
      25.3027      6.80565
      25.4241      6.82595
      25.5461      6.84563
      25.6686      6.86457
      25.7917      6.88288
      25.9153      6.90055
      26.0396      6.91763
      26.1644      6.93414
      26.2898      6.95006
      26.4157      6.96543
      26.5423      6.98016
      26.6694      6.99422
      26.7971      7.00755
      26.9254      7.02009
      27.0543      7.03180
      27.1838      7.04269
      27.3139      7.05275
      27.4446      7.06209
      27.5759      7.07078
      27.7078      7.07897
      27.8403      7.08683
      27.9734      7.09451
      28.1072      7.10226
      28.2415      7.11016
      28.3765      7.11841
      28.5121      7.12700
      28.6483      7.13595
      28.7852      7.14523
      28.9226      7.15471
      29.0608      7.16446
      29.1995      7.17420
      29.3389      7.18410
      29.4789      7.19393
      29.6196      7.20380
      29.7610      7.21375
      29.9030      7.22370
      30.0456      7.23397
      30.1889      7.24434
      30.3329      7.25521
      30.4775      7.26647
      30.6228      7.27827
      30.7687      7.29071
      30.9154      7.30363
      31.0627      7.31727
      31.2107      7.33131
      31.3594      7.34592
      31.5087      7.36093
      31.6588      7.37626
      31.8095      7.39200
      31.9610      7.40783
      32.1131      7.42399
      32.2660      7.44017
      32.4195      7.45648
      32.5738      7.47286
      32.7287      7.48920
      32.8844      7.50562
      33.0408      7.52190
      33.1979      7.53819
      33.3558      7.55434
      33.5144      7.57038
      33.6737      7.58631
      33.8337      7.60203
      33.9945      7.61763
      34.1560      7.63296
      34.3183      7.64810
      34.4813      7.66297
      34.6451      7.67756
      34.8096      7.69188
      34.9749      7.70587
      35.1410      7.71960
      35.3078      7.73300
      35.4754      7.74613
      35.6438      7.75897
      35.8129      7.77153
      35.9828      7.78384
      36.1535      7.79586
      36.3250      7.80764
      36.4973      7.81917
      36.6704      7.83048
      36.8443      7.84156
      37.0189      7.85239
      37.1944      7.86300
      37.3707      7.87338
      37.5478      7.88355
      37.7258      7.89353
      37.9045      7.90335
      38.0841      7.91304
      38.2645      7.92261
      38.4457      7.93209
      38.6278      7.94151
      38.8107      7.95090
      38.9945      7.96027
      39.1791      7.96964
      39.3645      7.97905
      39.5509      7.98850
      39.7380      7.99801
      39.9261      8.00757
      40.1150      8.01719
      40.3048      8.02689
      40.4954      8.03666
      40.6869      8.04651
      40.8794      8.05645
      41.0727      8.06648
      41.2669      8.07661
      41.4620      8.08683
      41.6580      8.09715
      41.8549      8.10758
      42.0527      8.11810
      42.2514      8.12872
      42.4510      8.13945
      42.6516      8.15029
      42.8531      8.16123
      43.0555      8.17228
      43.2588      8.18344
      43.4631      8.19471
      43.6684      8.20609
      43.8745      8.21758
      44.0817      8.22919
      44.2898      8.24090
      44.4988      8.25274
      44.7088      8.26469
      44.9198      8.27675
      45.1318      8.28893
      45.3447      8.30123
      45.5586      8.31365
      45.7735      8.32618
      45.9894      8.33884
      46.2063      8.35161
      46.4242      8.36451
      46.6431      8.37753
      46.8630      8.39066
      47.0839      8.40392
      47.3059      8.41731
      47.5289      8.43082
      47.7528      8.44445
      47.9779      8.45821
      48.2040      8.47209
      48.4311      8.48610
      48.6592      8.50023
      48.8884      8.51449
      49.1187      8.52888
      49.3501      8.54339
      49.5825      8.55804
      49.8159      8.57281
      50.0505      8.58772
      50.2861      8.60276
      50.5229      8.61792
      50.7607      8.63322
      50.9996      8.64866
      51.2396      8.66422
      51.4808      8.67993
      51.7230      8.69576
      51.9663      8.71173
      52.2108      8.72784
      52.4564      8.74409
      52.7032      8.76047
      52.9511      8.77699
      53.2001      8.79365
      53.4503      8.81045
      53.7016      8.82739
      53.9541      8.84447
      54.2077      8.86169
      54.4626      8.87905
      54.7186      8.89656
      54.9758      8.91421
      55.2341      8.93201
      55.4937      8.94995
      55.7545      8.96803
      56.0164      8.98627
      56.2796      9.00465
      56.5440      9.02318
      56.8096      9.04186
      57.0765      9.06069
      57.3445      9.07967
      57.6138      9.09880
      57.8844      9.11808
      58.1562      9.13752
      58.4292      9.15711
      58.7035      9.17685
      58.9791      9.19675
      59.2560      9.21680
      59.5341      9.23701
      59.8135      9.25737
      60.0942      9.27789
      60.3762      9.29857
      60.6595      9.31940
      60.9441      9.34040
      61.2300      9.36156
      61.5173      9.38288
      61.8058      9.40437
      62.0957      9.42601
      62.3870      9.44783
      62.6796      9.46980
      62.9735      9.49194
      63.2688      9.51425
      63.5654      9.53671
      63.8634      9.55935
      64.1628      9.58216
      64.4636      9.60513
      64.7658      9.62827
      65.0694      9.65157
      65.3743      9.67504
      65.6807      9.69868
      65.9885      9.72248
      66.2977      9.74645
      66.6083      9.77059
      66.9204      9.79491
      67.2339      9.81940
      67.5488      9.84406
      67.8652      9.86890
      68.1831      9.89392
      68.5024      9.91912
      68.8232      9.94449
      69.1455      9.97004
      69.4693      9.99577
      69.7946      10.0217
      70.1214      10.0478
      70.4496      10.0740
      70.7794      10.1004
      71.1108      10.1271
      71.4436      10.1539
      71.7780      10.1809
      72.1139      10.2080
      72.4514      10.2354
      72.7904      10.2629
      73.1310      10.2907
      73.4732      10.3186
      73.8169      10.3467
      74.1623      10.3750
      74.5092      10.4035
      74.8578      10.4322
      75.2079      10.4611
      75.5597      10.4902
      75.9130      10.5196
      76.2681      10.5491
      76.6247      10.5788
      76.9830      10.6087
      77.3430      10.6388
      77.7046      10.6692
      78.0679      10.6997
      78.4328      10.7304
      78.7995      10.7614
      79.1678      10.7925
      79.5378      10.8239
      79.9096      10.8554
      80.2830      10.8872
      80.6582      10.9192
      81.0352      10.9514
      81.4138      10.9838
      81.7942      11.0164
      82.1764      11.0492
      82.5603      11.0822
      82.9460      11.1154
      83.3335      11.1489
      83.7227      11.1825
      84.1138      11.2164
      84.5067      11.2505
      84.9014      11.2848
      85.2979      11.3193
      85.6962      11.3540
      86.0964      11.3890
      86.4984      11.4241
      86.9023      11.4595
      87.3080      11.4950
      87.7156      11.5308
      88.1251      11.5668
      88.5365      11.6031
      88.9498      11.6395
      89.3649      11.6762
      89.7820      11.7132
      90.2011      11.7504
      90.6221      11.7879
      91.0450      11.8258
      91.4698      11.8641
      91.8967      11.9028
      92.3254      11.9419
      92.7562      11.9816
      93.1890      12.0219
      93.6237      12.0628
      94.0605      12.1045
      94.4993      12.1470
      94.9401      12.1903
      95.3829      12.2347
      95.8278      12.2802
      96.2747      12.3269
      96.7237      12.3750
      97.1748      12.4246
      97.6279      12.4759
      98.0832      12.5291
      98.5406      12.5844

----------------------------------------------------------------------
SPECTRUM: CWW_Scd_ext
FILTER:        SDSS z + CCD, [MT]  no atmosphere (Ref. F. Castander)
----------------------------------------------------------------------
      0.00000      0.00000
   0.00461578  -0.00126138
   0.00925291  -0.00251858
    0.0139114  -0.00376562
    0.0185914  -0.00500102
    0.0232930  -0.00622052
    0.0280163  -0.00742268
    0.0327615  -0.00860479
    0.0375284  -0.00976082
    0.0423174   -0.0108929
    0.0471286   -0.0119965
    0.0519619   -0.0130731
    0.0568175   -0.0141218
    0.0616956   -0.0151419
    0.0665962   -0.0161327
    0.0715193   -0.0170948
    0.0764652   -0.0180273
    0.0814340   -0.0189303
    0.0864257   -0.0198058
    0.0914403   -0.0206526
    0.0964782   -0.0214724
     0.101539   -0.0222644
     0.106624   -0.0230290
     0.111732   -0.0237672
     0.116863   -0.0244744
     0.122018   -0.0251568
     0.127198   -0.0258118
     0.132400   -0.0264418
     0.137627   -0.0270489
     0.142878   -0.0276327
     0.148154   -0.0281983
     0.153453   -0.0287416
     0.158777   -0.0292703
     0.164126   -0.0297826
     0.169499   -0.0302811
     0.174898   -0.0307659
     0.180321   -0.0312350
     0.185769   -0.0316933
     0.191242   -0.0321337
     0.196741   -0.0325620
     0.202264   -0.0329762
     0.207814   -0.0333766
     0.213389   -0.0337664
     0.218990   -0.0341429
     0.224616   -0.0345121
     0.230269   -0.0348717
     0.235947   -0.0352246
     0.241652   -0.0355714
     0.247383   -0.0359115
     0.253141   -0.0362466
     0.258925   -0.0365731
     0.264736   -0.0368935
     0.270574   -0.0372064
     0.276439   -0.0375098
     0.282331   -0.0378031
     0.288249   -0.0380857
     0.294196   -0.0383570
     0.300170   -0.0386176
     0.306171   -0.0388642
     0.312200   -0.0390975
     0.318257   -0.0393157
     0.324342   -0.0395189
     0.330454   -0.0397065
     0.336596   -0.0398782
     0.342765   -0.0400337
     0.348963   -0.0401742
     0.355189   -0.0403005
     0.361445   -0.0404137
     0.367729   -0.0405166
     0.374042   -0.0406064
     0.380384   -0.0406872
     0.386756   -0.0407572
     0.393157   -0.0408130
     0.399587   -0.0408582
     0.406048   -0.0408831
     0.412538   -0.0408899
     0.419057   -0.0408676
     0.425608   -0.0408102
     0.432188   -0.0407084
     0.438799   -0.0405498
     0.445440   -0.0403282
     0.452112   -0.0400272
     0.458814   -0.0396469
     0.465548   -0.0391860
     0.472312   -0.0386509
     0.479108   -0.0380652
     0.485936   -0.0374459
     0.492794   -0.0368285
     0.499685   -0.0362219
     0.506607   -0.0356419
     0.513561   -0.0350380
     0.520548   -0.0344062
     0.527566   -0.0336878
     0.534617   -0.0328436
     0.541700   -0.0318927
     0.548817   -0.0307479
     0.555966   -0.0294928
     0.563148   -0.0280642
     0.570363   -0.0265177
     0.577611   -0.0249070
     0.584893   -0.0231885
     0.592209   -0.0214917
     0.599558   -0.0197751
     0.606941   -0.0181892
     0.614359   -0.0168039
     0.621810   -0.0156858
     0.629296   -0.0150087
     0.636817   -0.0147786
     0.644372   -0.0150696
     0.651962   -0.0158396
     0.659587   -0.0169023
     0.667247   -0.0183290
     0.674943   -0.0197674
     0.682674   -0.0213054
     0.690441   -0.0227489
     0.698244   -0.0239212
     0.706082   -0.0250228
     0.713957   -0.0256418
     0.721869   -0.0262185
     0.729816   -0.0263451
     0.737801   -0.0262927
     0.745822   -0.0261119
     0.753881   -0.0255400
     0.761976   -0.0250678
     0.770109   -0.0241883
     0.778279   -0.0234000
     0.786488   -0.0223985
     0.794734   -0.0212490
     0.803018   -0.0201185
     0.811340   -0.0186073
     0.819701   -0.0171581
     0.828100   -0.0152866
     0.836538   -0.0133265
     0.845015   -0.0111241
     0.853532  -0.00851471
     0.862087  -0.00574920
     0.870682  -0.00243361
     0.879317   0.00109585
     0.887991   0.00512521
     0.896706   0.00952106
     0.905461    0.0142208
     0.914256    0.0193932
     0.923092    0.0247183
     0.931968    0.0304044
     0.940886    0.0361663
     0.949845    0.0420849
     0.958845    0.0481109
     0.967886    0.0541592
     0.976970    0.0603938
     0.986095    0.0666532
     0.995262    0.0731126
      1.00447    0.0796324
      1.01372    0.0862592
      1.02302    0.0930184
      1.03236    0.0998336
      1.04174     0.106812
      1.05116     0.113890
      1.06063     0.121225
      1.07014     0.128773
      1.07970     0.136688
      1.08930     0.144945
      1.09894     0.153593
      1.10863     0.162627
      1.11836     0.171997
      1.12814     0.181817
      1.13796     0.191911
      1.14783     0.202445
      1.15774     0.213217
      1.16770     0.224259
      1.17771     0.235501
      1.18776     0.246738
      1.19786     0.258166
      1.20800     0.269563
      1.21820     0.281253
      1.22844     0.293137
      1.23872     0.305449
      1.24905     0.318365
      1.25944     0.331787
      1.26986     0.346122
      1.28034     0.360944
      1.29087     0.376600
      1.30144     0.392641
      1.31206     0.409144
      1.32274     0.426002
      1.33346     0.442860
      1.34423     0.460089
      1.35505     0.477018
      1.36592     0.494086
      1.37684     0.510911
      1.38781     0.527626
      1.39883     0.544292
      1.40991     0.560597
      1.42103     0.577007
      1.43220     0.592952
      1.44343     0.608872
      1.45471     0.624517
      1.46604     0.639904
      1.47742     0.655217
      1.48886     0.670069
      1.50035     0.684856
      1.51189     0.699166
      1.52348     0.713263
      1.53513     0.727011
      1.54683     0.740349
      1.55859     0.753501
      1.57040     0.766112
      1.58226     0.778500
      1.59418     0.790422
      1.60615     0.802019
      1.61818     0.813278
      1.63027     0.824130
      1.64241     0.834771
      1.65461     0.845022
      1.66686     0.855085
      1.67917     0.864858
      1.69153     0.874407
      1.70396     0.883756
      1.71644     0.892837
      1.72898     0.901754
      1.74157     0.910442
      1.75423     0.918977
      1.76694     0.927346
      1.77971     0.935574
      1.79254     0.943689
      1.80543     0.951680
      1.81838     0.959581
      1.83139     0.967404
      1.84446     0.975184
      1.85759     0.982946
      1.87078     0.990702
      1.88403     0.998465
      1.89734      1.00623
      1.91072      1.01398
      1.92415      1.02171
      1.93765      1.02942
      1.95121      1.03709
      1.96483      1.04471
      1.97852      1.05227
      1.99226      1.05978
      2.00608      1.06722
      2.01995      1.07459
      2.03389      1.08187
      2.04789      1.08907
      2.06196      1.09617
      2.07610      1.10316
      2.09030      1.11004
      2.10456      1.11680
      2.11889      1.12342
      2.13329      1.12990
      2.14775      1.13623
      2.16228      1.14239
      2.17687      1.14839
      2.19154      1.15420
      2.20627      1.15983
      2.22107      1.16526
      2.23594      1.17048
      2.25087      1.17549
      2.26588      1.18027
      2.28095      1.18483
      2.29610      1.18916
      2.31131      1.19325
      2.32660      1.19710
      2.34195      1.20071
      2.35738      1.20407
      2.37287      1.20718
      2.38844      1.21005
      2.40408      1.21267
      2.41979      1.21504
      2.43558      1.21718
      2.45144      1.21907
      2.46737      1.22074
      2.48337      1.22216
      2.49945      1.22336
      2.51560      1.22434
      2.53183      1.22511
      2.54813      1.22567
      2.56451      1.22602
      2.58096      1.22619
      2.59749      1.22616
      2.61410      1.22596
      2.63078      1.22559
      2.64754      1.22505
      2.66438      1.22436
      2.68129      1.22352
      2.69828      1.22254
      2.71535      1.22143
      2.73250      1.22018
      2.74973      1.21881
      2.76704      1.21732
      2.78443      1.21571
      2.80189      1.21398
      2.81944      1.21214
      2.83707      1.21018
      2.85478      1.20810
      2.87258      1.20591
      2.89045      1.20362
      2.90841      1.20122
      2.92645      1.19871
      2.94457      1.19611
      2.96278      1.19340
      2.98107      1.19060
      2.99945      1.18771
      3.01791      1.18473
      3.03645      1.18166
      3.05509      1.17850
      3.07380      1.17527
      3.09261      1.17197
      3.11150      1.16860
      3.13048      1.16518
      3.14954      1.16170
      3.16869      1.15820
      3.18794      1.15466
      3.20727      1.15111
      3.22669      1.14756
      3.24620      1.14401
      3.26580      1.14046
      3.28549      1.13695
      3.30527      1.13346
      3.32514      1.13001
      3.34510      1.12662
      3.36516      1.12330
      3.38531      1.12007
      3.40555      1.11693
      3.42588      1.11392
      3.44631      1.11103
      3.46684      1.10829
      3.48745      1.10572
      3.50817      1.10332
      3.52898      1.10113
      3.54988      1.09917
      3.57088      1.09747
      3.59198      1.09608
      3.61318      1.09503
      3.63447      1.09433
      3.65586      1.09396
      3.67735      1.09391
      3.69894      1.09416
      3.72063      1.09465
      3.74242      1.09543
      3.76431      1.09634
      3.78630      1.09739
      3.80839      1.09849
      3.83059      1.09952
      3.85288      1.10048
      3.87529      1.10119
      3.89779      1.10176
      3.92039      1.10217
      3.94311      1.10232
      3.96592      1.10253
      3.98884      1.10247
      4.01187      1.10256
      4.03501      1.10261
      4.05825      1.10255
      4.08159      1.10284
      4.10505      1.10280
      4.12861      1.10312
      4.15229      1.10329
      4.17607      1.10367
      4.19996      1.10438
      4.22396      1.10484
      4.24808      1.10611
      4.27230      1.10734
      4.29663      1.10918
      4.32108      1.11129
      4.34564      1.11343
      4.37032      1.11600
      4.39511      1.11780
      4.42001      1.11970
      4.44503      1.12067
      4.47016      1.12111
      4.49541      1.12073
      4.52077      1.11903
      4.54626      1.11706
      4.57186      1.11347
      4.59758      1.10968
      4.62341      1.10477
      4.64937      1.09937
      4.67545      1.09365
      4.70164      1.08698
      4.72796      1.08067
      4.75440      1.07362
      4.78096      1.06703
      4.80764      1.06042
      4.83445      1.05407
      4.86138      1.04828
      4.88844      1.04242
      4.91562      1.03697
      4.94292      1.03135
      4.97035      1.02564
      4.99791      1.01969
      5.02560      1.01331
      5.05341      1.00640
      5.08135     0.998974
      5.10942     0.991041
      5.13762     0.982898
      5.16595     0.974443
      5.19441     0.965769
      5.22300     0.957213
      5.25173     0.948639
      5.28058     0.940513
      5.30957     0.932625
      5.33870     0.925179
      5.36796     0.918097
      5.39735     0.911215
      5.42688     0.904852
      5.45654     0.898711
      5.48634     0.893155
      5.51628     0.887910
      5.54636     0.883141
      5.57658     0.879060
      5.60693     0.875664
      5.63743     0.873379
      5.66807     0.872118
      5.69885     0.872355
      5.72977     0.874373
      5.76083     0.878059
      5.79204     0.883666
      5.82339     0.890836
      5.85488     0.899130
      5.88652     0.908444
      5.91831     0.917815
      5.95024     0.927403
      5.98232     0.936431
      6.01455     0.944971
      6.04693     0.952557
      6.07946     0.958696
      6.11213     0.964048
      6.14496     0.967695
      6.17794     0.970911
      6.21107     0.972488
      6.24436     0.973784
      6.27780     0.974263
      6.31139     0.974313
      6.34514     0.974360
      6.37904     0.973500
      6.41310     0.973295
      6.44732     0.972073
      6.48170     0.971145
      6.51623     0.969705
      6.55092     0.968157
      6.58578     0.966730
      6.62079     0.964536
      6.65597     0.962944
      6.69130     0.960373
      6.72681     0.958059
      6.76247     0.955184
      6.79830     0.951990
      6.83430     0.948951
      6.87046     0.945465
      6.90679     0.943107
      6.94328     0.940706
      6.97995     0.939704
      7.01678     0.939723
      7.05378     0.940715
      7.09096     0.943201
      7.12831     0.945907
      7.16582     0.950005
      7.20352     0.954138
      7.24138     0.959403
      7.27942     0.965353
      7.31764     0.972274
      7.35603     0.980695
      7.39460     0.990019
      7.43335      1.00099
      7.47227      1.01250
      7.51138      1.02471
      7.55067      1.03760
      7.59014      1.05027
      7.62979      1.06363
      7.66962      1.07674
      7.70964      1.09032
      7.74984      1.10510
      7.79023      1.12052
      7.83080      1.13855
      7.87156      1.15799
      7.91251      1.18061
      7.95365      1.20608
      7.99498      1.23436
      8.03649      1.26670
      8.07821      1.30091
      8.12011      1.33930
      8.16220      1.37984
      8.20450      1.42304
      8.24698      1.46888
      8.28966      1.51591
      8.33254      1.56580
      8.37562      1.61618
      8.41890      1.66883
      8.46237      1.72260
      8.50605      1.77723
      8.54993      1.83390
      8.59401      1.89042
      8.63829      1.94920
      8.68278      2.00822
      8.72747      2.06848
      8.77237      2.12984
      8.81748      2.19148
      8.86279      2.25501
      8.90832      2.31780
      8.95405      2.38221
      9.00000      2.44647
      9.04616      2.51076
      9.09253      2.57538
      9.13911      2.63877
      9.18591      2.70215
      9.23293      2.76398
      9.28016      2.82499
      9.32762      2.88450
      9.37529      2.94170
      9.42317      2.99698
      9.47128      3.04961
      9.51962      3.09982
      9.56818      3.14722
      9.61696      3.19134
      9.66596      3.23225
      9.71519      3.26976
      9.76465      3.30352
      9.81434      3.33379
      9.86426      3.35955
      9.91440      3.38122
      9.96478      3.39860
      10.0154      3.41222
      10.0662      3.42252
      10.1173      3.42974
      10.1686      3.43477
      10.2202      3.43779
      10.2720      3.43954
      10.3240      3.44028
      10.3763      3.44040
      10.4288      3.44035
      10.4815      3.44022
      10.5345      3.44047
      10.5878      3.44115
      10.6413      3.44243
      10.6950      3.44429
      10.7490      3.44657
      10.8032      3.44936
      10.8577      3.45236
      10.9124      3.45569
      10.9674      3.45918
      11.0226      3.46269
      11.0781      3.46631
      11.1339      3.46952
      11.1899      3.47286
      11.2462      3.47588
      11.3027      3.47882
      11.3595      3.48182
      11.4165      3.48456
      11.4738      3.48775
      11.5314      3.49072
      11.5893      3.49401
      11.6474      3.49747
      11.7057      3.50075
      11.7644      3.50439
      11.8233      3.50754
      11.8825      3.51100
      11.9420      3.51421
      12.0017      3.51739
      12.0617      3.52087
      12.1220      3.52401
      12.1826      3.52767
      12.2434      3.53114
      12.3045      3.53515
      12.3660      3.53960
      12.4277      3.54436
      12.4896      3.55008
      12.5519      3.55593
      12.6144      3.56276
      12.6773      3.56974
      12.7404      3.57713
      12.8038      3.58477
      12.8676      3.59196
      12.9316      3.59925
      12.9959      3.60559
      13.0605      3.61174
      13.1254      3.61706
      13.1906      3.62177
      13.2561      3.62609
      13.3219      3.62963
      13.3880      3.63316
      13.4544      3.63616
      13.5211      3.63933
      13.5881      3.64263
      13.6555      3.64620
      13.7231      3.65052
      13.7911      3.65536
      13.8594      3.66140
      13.9279      3.66832
      13.9968      3.67636
      14.0661      3.68542
      14.1356      3.69519
      14.2055      3.70580
      14.2757      3.71668
      14.3462      3.72780
      14.4170      3.73876
      14.4882      3.74927
      14.5597      3.75922
      14.6315      3.76825
      14.7036      3.77644
      14.7761      3.78364
      14.8489      3.78991
      14.9221      3.79552
      14.9956      3.80054
      15.0694      3.80545
      15.1436      3.81059
      15.2181      3.81630
      15.2930      3.82306
      15.3682      3.83070
      15.4437      3.83967
      15.5196      3.84981
      15.5959      3.86117
      15.6725      3.87385
      15.7494      3.88724
      15.8267      3.90178
      15.9044      3.91658
      15.9824      3.93202
      16.0608      3.94760
      16.1396      3.96321
      16.2187      3.97908
      16.2982      3.99452
      16.3780      4.01024
      16.4582      4.02547
      16.5388      4.04083
      16.6198      4.05618
      16.7011      4.07131
      16.7828      4.08666
      16.8649      4.10144
      16.9473      4.11631
      17.0302      4.13055
      17.1134      4.14443
      17.1970      4.15791
      17.2810      4.17050
      17.3654      4.18273
      17.4502      4.19387
      17.5353      4.20469
      17.6209      4.21484
      17.7068      4.22461
      17.7932      4.23426
      17.8799      4.24353
      17.9671      4.25302
      18.0546      4.26227
      18.1426      4.27176
      18.2309      4.28128
      18.3197      4.29077
      18.4089      4.30028
      18.4984      4.30933
      18.5884      4.31813
      18.6789      4.32620
      18.7697      4.33367
      18.8609      4.34038
      18.9526      4.34627
      19.0447      4.35143
      19.1372      4.35583
      19.2302      4.35976
      19.3236      4.36326
      19.4174      4.36665
      19.5116      4.37013
      19.6063      4.37396
      19.7014      4.37845
      19.7970      4.38383
      19.8930      4.39033
      19.9894      4.39805
      20.0863      4.40718
      20.1836      4.41771
      20.2814      4.42975
      20.3796      4.44318
      20.4783      4.45789
      20.5774      4.47370
      20.6770      4.49028
      20.7771      4.50755
      20.8776      4.52504
      20.9786      4.54274
      21.0800      4.56040
      21.1820      4.57791
      21.2844      4.59538
      21.3872      4.61257
      21.4905      4.62991
      21.5944      4.64731
      21.6986      4.66513
      21.8034      4.68360
      21.9087      4.70277
      22.0144      4.72315
      22.1206      4.74453
      22.2274      4.76732
      22.3346      4.79144
      22.4423      4.81689
      22.5505      4.84379
      22.6592      4.87177
      22.7684      4.90106
      22.8781      4.93120
      22.9883      4.96221
      23.0991      4.99389
      23.2103      5.02589
      23.3220      5.05837
      23.4343      5.09074
      23.5471      5.12322
      23.6604      5.15547
      23.7742      5.18741
      23.8886      5.21904
      24.0035      5.25002
      24.1189      5.28062
      24.2348      5.31048
      24.3513      5.33978
      24.4683      5.36842
      24.5859      5.39633
      24.7040      5.42365
      24.8226      5.45013
      24.9418      5.47599
      25.0615      5.50106
      25.1818      5.52540
      25.3027      5.54900
      25.4241      5.57179
      25.5461      5.59389
      25.6686      5.61516
      25.7917      5.63571
      25.9153      5.65552
      26.0396      5.67467
      26.1644      5.69316
      26.2898      5.71096
      26.4157      5.72812
      26.5423      5.74453
      26.6694      5.76017
      26.7971      5.77492
      26.9254      5.78874
      27.0543      5.80158
      27.1838      5.81342
      27.3139      5.82428
      27.4446      5.83427
      27.5759      5.84346
      27.7078      5.85205
      27.8403      5.86022
      27.9734      5.86817
      28.1072      5.87617
      28.2415      5.88433
      28.3765      5.89289
      28.5121      5.90182
      28.6483      5.91117
      28.7852      5.92088
      28.9226      5.93081
      29.0608      5.94104
      29.1995      5.95124
      29.3389      5.96161
      29.4789      5.97187
      29.6196      5.98217
      29.7610      5.99254
      29.9030      6.00290
      30.0456      6.01360
      30.1889      6.02441
      30.3329      6.03578
      30.4775      6.04761
      30.6228      6.06005
      30.7687      6.07323
      30.9154      6.08697
      31.0627      6.10153
      31.2107      6.11657
      31.3594      6.13227
      31.5087      6.14842
      31.6588      6.16495
      31.8095      6.18194
      31.9610      6.19904
      32.1131      6.21650
      32.2660      6.23398
      32.4195      6.25161
      32.5738      6.26929
      32.7287      6.28692
      32.8844      6.30462
      33.0408      6.32214
      33.1979      6.33965
      33.3558      6.35698
      33.5144      6.37415
      33.6737      6.39117
      33.8337      6.40792
      33.9945      6.42450
      34.1560      6.44073
      34.3183      6.45671
      34.4813      6.47234
      34.6451      6.48760
      34.8096      6.50252
      34.9749      6.51699
      35.1410      6.53113
      35.3078      6.54485
      35.4754      6.55820
      35.6438      6.57117
      35.8129      6.58378
      35.9828      6.59605
      36.1535      6.60794
      36.3250      6.61952
      36.4973      6.63077
      36.6704      6.64171
      36.8443      6.65235
      37.0189      6.66266
      37.1944      6.67267
      37.3707      6.68238
      37.5478      6.69181
      37.7258      6.70100
      37.9045      6.70996
      38.0841      6.71873
      38.2645      6.72734
      38.4457      6.73583
      38.6278      6.74422
      38.8107      6.75254
      38.9945      6.76083
      39.1791      6.76910
      39.3645      6.77739
      39.5509      6.78572
      39.7380      6.79409
      39.9261      6.80252
      40.1150      6.81100
      40.3048      6.81954
      40.4954      6.82816
      40.6869      6.83686
      40.8794      6.84564
      41.0727      6.85451
      41.2669      6.86348
      41.4620      6.87254
      41.6580      6.88170
      41.8549      6.89096
      42.0527      6.90033
      42.2514      6.90980
      42.4510      6.91937
      42.6516      6.92905
      42.8531      6.93884
      43.0555      6.94875
      43.2588      6.95876
      43.4631      6.96888
      43.6684      6.97912
      43.8745      6.98947
      44.0817      6.99994
      44.2898      7.01052
      44.4988      7.02122
      44.7088      7.03204
      44.9198      7.04298
      45.1318      7.05404
      45.3447      7.06521
      45.5586      7.07652
      45.7735      7.08794
      45.9894      7.09948
      46.2063      7.11115
      46.4242      7.12294
      46.6431      7.13486
      46.8630      7.14690
      47.0839      7.15906
      47.3059      7.17135
      47.5289      7.18377
      47.7528      7.19631
      47.9779      7.20899
      48.2040      7.22179
      48.4311      7.23472
      48.6592      7.24778
      48.8884      7.26097
      49.1187      7.27429
      49.3501      7.28775
      49.5825      7.30134
      49.8159      7.31506
      50.0505      7.32892
      50.2861      7.34291
      50.5229      7.35703
      50.7607      7.37130
      50.9996      7.38570
      51.2396      7.40023
      51.4808      7.41491
      51.7230      7.42972
      51.9663      7.44467
      52.2108      7.45976
      52.4564      7.47499
      52.7032      7.49036
      52.9511      7.50588
      53.2001      7.52153
      53.4503      7.53733
      53.7016      7.55328
      53.9541      7.56936
      54.2077      7.58559
      54.4626      7.60197
      54.7186      7.61850
      54.9758      7.63517
      55.2341      7.65199
      55.4937      7.66896
      55.7545      7.68607
      56.0164      7.70334
      56.2796      7.72076
      56.5440      7.73833
      56.8096      7.75606
      57.0765      7.77394
      57.3445      7.79197
      57.6138      7.81015
      57.8844      7.82850
      58.1562      7.84700
      58.4292      7.86565
      58.7035      7.88447
      58.9791      7.90344
      59.2560      7.92257
      59.5341      7.94186
      59.8135      7.96131
      60.0942      7.98092
      60.3762      8.00069
      60.6595      8.02062
      60.9441      8.04072
      61.2300      8.06098
      61.5173      8.08141
      61.8058      8.10200
      62.0957      8.12276
      62.3870      8.14369
      62.6796      8.16478
      62.9735      8.18604
      63.2688      8.20748
      63.5654      8.22908
      63.8634      8.25086
      64.1628      8.27280
      64.4636      8.29492
      64.7658      8.31721
      65.0694      8.33967
      65.3743      8.36231
      65.6807      8.38511
      65.9885      8.40809
      66.2977      8.43124
      66.6083      8.45456
      66.9204      8.47806
      67.2339      8.50174
      67.5488      8.52559
      67.8652      8.54963
      68.1831      8.57384
      68.5024      8.59824
      68.8232      8.62282
      69.1455      8.64758
      69.4693      8.67251
      69.7946      8.69763
      70.1214      8.72293
      70.4496      8.74842
      70.7794      8.77408
      71.1108      8.79993
      71.4436      8.82597
      71.7780      8.85219
      72.1139      8.87859
      72.4514      8.90519
      72.7904      8.93198
      73.1310      8.95895
      73.4732      8.98612
      73.8169      9.01350
      74.1623      9.04107
      74.5092      9.06885
      74.8578      9.09682
      75.2079      9.12501
      75.5597      9.15340
      75.9130      9.18199
      76.2681      9.21080
      76.6247      9.23980
      76.9830      9.26902
      77.3430      9.29844
      77.7046      9.32807
      78.0679      9.35791
      78.4328      9.38795
      78.7995      9.41820
      79.1678      9.44866
      79.5378      9.47933
      79.9096      9.51021
      80.2830      9.54130
      80.6582      9.57261
      81.0352      9.60412
      81.4138      9.63585
      81.7942      9.66779
      82.1764      9.69995
      82.5603      9.73232
      82.9460      9.76491
      83.3335      9.79771
      83.7227      9.83073
      84.1138      9.86397
      84.5067      9.89742
      84.9014      9.93109
      85.2979      9.96498
      85.6962      9.99908
      86.0964      10.0334
      86.4984      10.0679
      86.9023      10.1027
      87.3080      10.1377
      87.7156      10.1728
      88.1251      10.2082
      88.5365      10.2439
      88.9498      10.2797
      89.3649      10.3158
      89.7820      10.3522
      90.2011      10.3888
      90.6221      10.4258
      91.0450      10.4631
      91.4698      10.5008
      91.8967      10.5389
      92.3254      10.5775
      92.7562      10.6166
      93.1890      10.6563
      93.6237      10.6966
      94.0605      10.7376
      94.4993      10.7795
      94.9401      10.8222
      95.3829      10.8660
      95.8278      10.9108
      96.2747      10.9568
      96.7237      11.0042
      97.1748      11.0530
      97.6279      11.1035
      98.0832      11.1559
      98.5406      11.2102

----------------------------------------------------------------------
SPECTRUM: CWW_Im_ext
FILTER:        SDSS z + CCD, [MT]  no atmosphere (Ref. F. Castander)
----------------------------------------------------------------------
      0.00000      0.00000
   0.00461578   0.00108809
   0.00925291   0.00220299
    0.0139114   0.00333081
    0.0185914   0.00446610
    0.0232930   0.00560586
    0.0280163   0.00673723
    0.0327615   0.00786562
    0.0375284   0.00898489
    0.0423174    0.0100918
    0.0471286    0.0111860
    0.0519619    0.0122612
    0.0568175    0.0133186
    0.0616956    0.0143578
    0.0665962    0.0153759
    0.0715193    0.0163785
    0.0764652    0.0173588
    0.0814340    0.0183240
    0.0864257    0.0192703
    0.0914403    0.0201963
    0.0964782    0.0211057
     0.101539    0.0219920
     0.106624    0.0228615
     0.111732    0.0237077
     0.116863    0.0245356
     0.122018    0.0253431
     0.127198    0.0261313
     0.132400    0.0269040
     0.137627    0.0276541
     0.142878    0.0283874
     0.148154    0.0290993
     0.153453    0.0297940
     0.158777    0.0304687
     0.164126    0.0311229
     0.169499    0.0317570
     0.174898    0.0323657
     0.180321    0.0329561
     0.185769    0.0335240
     0.191242    0.0340728
     0.196741    0.0346041
     0.202264    0.0351152
     0.207814    0.0356093
     0.213389    0.0360843
     0.218990    0.0365428
     0.224616    0.0369829
     0.230269    0.0374049
     0.235947    0.0378069
     0.241652    0.0381874
     0.247383    0.0385463
     0.253141    0.0388814
     0.258925    0.0391934
     0.264736    0.0394804
     0.270574    0.0397426
     0.276439    0.0399791
     0.282331    0.0401887
     0.288249    0.0403720
     0.294196    0.0405288
     0.300170    0.0406593
     0.306171    0.0407622
     0.312200    0.0408358
     0.318257    0.0408825
     0.324342    0.0408977
     0.330454    0.0408863
     0.336596    0.0408446
     0.342765    0.0407745
     0.348963    0.0406795
     0.355189    0.0405577
     0.361445    0.0404194
     0.367729    0.0402609
     0.374042    0.0400943
     0.380384    0.0399236
     0.386756    0.0397563
     0.393157    0.0396067
     0.399587    0.0394727
     0.406048    0.0393771
     0.412538    0.0393164
     0.419057    0.0393054
     0.425608    0.0393446
     0.432188    0.0394338
     0.438799    0.0395801
     0.445440    0.0397675
     0.452112    0.0400026
     0.458814    0.0402672
     0.465548    0.0405545
     0.472312    0.0408544
     0.479108    0.0411509
     0.485936    0.0414482
     0.492794    0.0417259
     0.499685    0.0419931
     0.506607    0.0422501
     0.513561    0.0424845
     0.520548    0.0426785
     0.527566    0.0427863
     0.534617    0.0428230
     0.541700    0.0427333
     0.548817    0.0425022
     0.555966    0.0421413
     0.563148    0.0416367
     0.570363    0.0410663
     0.577611    0.0403505
     0.584893    0.0394931
     0.592209    0.0385043
     0.599558    0.0371421
     0.606941    0.0352737
     0.614359    0.0325227
     0.621810    0.0286373
     0.629296    0.0231462
     0.636817    0.0156256
     0.644372   0.00639271
     0.651962  -0.00462823
     0.659587   -0.0163714
     0.667247   -0.0291861
     0.674943   -0.0415313
     0.682674   -0.0536227
     0.690441   -0.0651298
     0.698244   -0.0750772
     0.706082   -0.0845451
     0.713957   -0.0916801
     0.721869   -0.0984728
     0.729816    -0.103145
     0.737801    -0.106992
     0.745822    -0.110320
     0.753881    -0.112035
     0.761976    -0.114325
     0.770109    -0.114731
     0.778279    -0.115669
     0.786488    -0.115730
     0.794734    -0.115556
     0.803018    -0.115813
     0.811340    -0.114804
     0.819701    -0.114783
     0.828100    -0.113210
     0.836538    -0.112138
     0.845015    -0.110773
     0.853532    -0.108735
     0.862087    -0.107207
     0.870682    -0.104368
     0.879317    -0.102141
     0.887991   -0.0988951
     0.896706   -0.0957222
     0.905461   -0.0924928
     0.914256   -0.0885145
     0.923092   -0.0850274
     0.931968   -0.0806319
     0.940886   -0.0767060
     0.949845   -0.0725190
     0.958845   -0.0684342
     0.967886   -0.0647265
     0.976970   -0.0607158
     0.986095   -0.0571786
     0.995262   -0.0533311
      1.00447   -0.0499240
      1.01372   -0.0466096
      1.02302   -0.0433818
      1.03236   -0.0404848
      1.04174   -0.0375382
      1.05116   -0.0348413
      1.06063   -0.0320467
      1.07014   -0.0293642
      1.07970   -0.0265725
      1.08930   -0.0237120
      1.09894   -0.0208232
      1.10863   -0.0178315
      1.11836   -0.0147831
      1.12814   -0.0115748
      1.13796  -0.00828945
      1.14783  -0.00487055
      1.15774  -0.00148272
      1.16770   0.00177743
      1.17771   0.00468830
      1.18776   0.00699498
      1.19786   0.00873609
      1.20800   0.00976210
      1.21820    0.0107832
      1.22844    0.0115691
      1.23872    0.0129557
      1.24905    0.0151829
      1.25944    0.0183450
      1.26986    0.0234617
      1.28034    0.0294045
      1.29087    0.0373911
      1.30144    0.0461893
      1.31206    0.0562475
      1.32274    0.0673547
      1.33346    0.0785342
      1.34423    0.0910614
      1.35505     0.102937
      1.36592     0.115500
      1.37684     0.127766
      1.38781     0.139965
      1.39883     0.152505
      1.40991     0.164309
      1.42103     0.176867
      1.43220     0.188592
      1.44343     0.200629
      1.45471     0.212506
      1.46604     0.224027
      1.47742     0.236023
      1.48886     0.247243
      1.50035     0.258891
      1.51189     0.269930
      1.52348     0.280899
      1.53513     0.291743
      1.54683     0.301975
      1.55859     0.312462
      1.57040     0.322108
      1.58226     0.331768
      1.59418     0.340897
      1.60615     0.349608
      1.61818     0.358073
      1.63027     0.365851
      1.64241     0.373502
      1.65461     0.380509
      1.66686     0.387250
      1.67917     0.393544
      1.69153     0.399376
      1.70396     0.404903
      1.71644     0.409862
      1.72898     0.414450
      1.74157     0.418522
      1.75423     0.422184
      1.76694     0.425445
      1.77971     0.428290
      1.79254     0.430767
      1.80543     0.432840
      1.81838     0.434559
      1.83139     0.435968
      1.84446     0.437154
      1.85759     0.438165
      1.87078     0.439036
      1.88403     0.439789
      1.89734     0.440418
      1.91072     0.440922
      1.92415     0.441293
      1.93765     0.441530
      1.95121     0.441630
      1.96483     0.441589
      1.97852     0.441410
      1.99226     0.441088
      2.00608     0.440628
      2.01995     0.440031
      2.03389     0.439303
      2.04789     0.438448
      2.06196     0.437470
      2.07610     0.436371
      2.09030     0.435155
      2.10456     0.433824
      2.11889     0.432383
      2.13329     0.430833
      2.14775     0.429180
      2.16228     0.427425
      2.17687     0.425574
      2.19154     0.423627
      2.20627     0.421590
      2.22107     0.419467
      2.23594     0.417260
      2.25087     0.414972
      2.26588     0.412607
      2.28095     0.410170
      2.29610     0.407661
      2.31131     0.405087
      2.32660     0.402449
      2.34195     0.399751
      2.35738     0.396995
      2.37287     0.394186
      2.38844     0.391326
      2.40408     0.388418
      2.41979     0.385465
      2.43558     0.382470
      2.45144     0.379437
      2.46737     0.376368
      2.48337     0.373267
      2.49945     0.370136
      2.51560     0.366977
      2.53183     0.363796
      2.54813     0.360593
      2.56451     0.357370
      2.58096     0.354133
      2.59749     0.350880
      2.61410     0.347617
      2.63078     0.344346
      2.64754     0.341068
      2.66438     0.337785
      2.68129     0.334500
      2.69828     0.331215
      2.71535     0.327930
      2.73250     0.324648
      2.74973     0.321368
      2.76704     0.318092
      2.78443     0.314821
      2.80189     0.311555
      2.81944     0.308293
      2.83707     0.305038
      2.85478     0.301789
      2.87258     0.298545
      2.89045     0.295307
      2.90841     0.292077
      2.92645     0.288854
      2.94457     0.285639
      2.96278     0.282432
      2.98107     0.279234
      2.99945     0.276045
      3.01791     0.272866
      3.03645     0.269698
      3.05509     0.266540
      3.07380     0.263395
      3.09261     0.260264
      3.11150     0.257148
      3.13048     0.254052
      3.14954     0.250976
      3.16869     0.247925
      3.18794     0.244903
      3.20727     0.241913
      3.22669     0.238957
      3.24620     0.236039
      3.26580     0.233159
      3.28549     0.230323
      3.30527     0.227532
      3.32514     0.224789
      3.34510     0.222097
      3.36516     0.219463
      3.38531     0.216889
      3.40555     0.214381
      3.42588     0.211944
      3.44631     0.209579
      3.46684     0.207293
      3.48745     0.205087
      3.50817     0.202962
      3.52898     0.200923
      3.54988     0.198968
      3.57088     0.197104
      3.59198     0.195330
      3.61318     0.193653
      3.63447     0.192075
      3.65586     0.190598
      3.67735     0.189230
      3.69894     0.187969
      3.72063     0.186819
      3.74242     0.185780
      3.76431     0.184852
      3.78630     0.184035
      3.80839     0.183327
      3.83059     0.182726
      3.85288     0.182232
      3.87529     0.181841
      3.89779     0.181554
      3.92039     0.181365
      3.94311     0.181276
      3.96592     0.181281
      3.98884     0.181379
      4.01187     0.181568
      4.03501     0.181844
      4.05825     0.182205
      4.08159     0.182646
      4.10505     0.183165
      4.12861     0.183758
      4.15229     0.184423
      4.17607     0.185157
      4.19996     0.185956
      4.22396     0.186819
      4.24808     0.187744
      4.27230     0.188726
      4.29663     0.189765
      4.32108     0.190857
      4.34564     0.192000
      4.37032     0.193190
      4.39511     0.194424
      4.42001     0.195701
      4.44503     0.197014
      4.47016     0.198356
      4.49541     0.199719
      4.52077     0.201087
      4.54626     0.202440
      4.57186     0.203750
      4.59758     0.204969
      4.62341     0.206045
      4.64937     0.206927
      4.67545     0.207548
      4.70164     0.207975
      4.72796     0.208143
      4.75440     0.208230
      4.78096     0.208217
      4.80764     0.208258
      4.83445     0.208457
      4.86138     0.208744
      4.88844     0.209281
      4.91562     0.209551
      4.94292     0.209828
      4.97035     0.209525
      4.99791     0.208798
      5.02560     0.207471
      5.05341     0.205053
      5.08135     0.202177
      5.10942     0.198133
      5.13762     0.193779
      5.16595     0.188632
      5.19441     0.182921
      5.22300     0.177132
      5.25173     0.170766
      5.28058     0.164750
      5.30957     0.158436
      5.33870     0.152381
      5.36796     0.146335
      5.39735     0.140146
      5.42688     0.134292
      5.45654     0.128219
      5.48634     0.122545
      5.51628     0.116766
      5.54636     0.111223
      5.57658     0.106073
      5.60693     0.101286
      5.63743    0.0973967
      5.66807    0.0942162
      5.69885    0.0923831
      5.72977    0.0920848
      5.76083    0.0933376
      5.79204    0.0963546
      5.82339     0.100828
      5.85488     0.106356
      5.88652     0.112842
      5.91831     0.119429
      5.95024     0.126229
      5.98232     0.132590
      6.01455     0.138536
      6.04693     0.143650
      6.07946     0.147445
      6.11213     0.150536
      6.14496     0.152103
      6.17794     0.153292
      6.21107     0.152958
      6.24436     0.152425
      6.27780     0.151141
      6.31139     0.149540
      6.34514     0.147953
      6.37904     0.145564
      6.41310     0.143848
      6.44732     0.141143
      6.48170     0.138764
      6.51623     0.135856
      6.55092     0.132894
      6.58578     0.130032
      6.62079     0.126457
      6.65597     0.123490
      6.69130     0.119562
      6.72681     0.115938
      6.76247     0.111766
      6.79830     0.107349
      6.83430     0.103104
      6.87046    0.0984724
      6.90679    0.0950032
      6.94328    0.0915291
      6.97995    0.0895067
      7.01678    0.0885293
      7.05378    0.0885795
      7.09096    0.0901413
      7.12831    0.0919669
      7.16582    0.0952175
      7.20352    0.0985375
      7.24138     0.103029
      7.27942     0.108230
      7.31764     0.114443
      7.35603     0.122174
      7.39460     0.130833
      7.43335     0.141148
      7.47227     0.152019
      7.51138     0.163574
      7.55067     0.175809
      7.59014     0.187810
      7.62979     0.200493
      7.66962     0.212923
      7.70964     0.225824
      7.74984     0.239947
      7.79023     0.254725
      7.83080     0.272151
      7.87156     0.291017
      7.91251     0.313112
      7.95365     0.338097
      7.99498     0.365937
      8.03649     0.397880
      8.07821     0.431721
      8.12011     0.469798
      8.16220     0.510051
      8.20450     0.552984
      8.24698     0.598601
      8.28966     0.645423
      8.33254     0.695137
      8.37562     0.745352
      8.41890     0.797862
      8.46237     0.851509
      8.50605     0.906035
      8.54993     0.962611
      8.59401      1.01905
      8.63829      1.07777
      8.68278      1.13674
      8.72747      1.19697
      8.77237      1.25832
      8.81748      1.31996
      8.86279      1.38352
      8.90832      1.44636
      8.95405      1.51084
      9.00000      1.57519
      9.04616      1.63960
      9.09253      1.70435
      9.13911      1.76789
      9.18591      1.83143
      9.23293      1.89345
      9.28016      1.95467
      9.32762      2.01442
      9.37529      2.07187
      9.42317      2.12742
      9.47128      2.18034
      9.51962      2.23087
      9.56818      2.27860
      9.61696      2.32305
      9.66596      2.36430
      9.71519      2.40214
      9.76465      2.43624
      9.81434      2.46682
      9.86426      2.49286
      9.91440      2.51480
      9.96478      2.53242
      10.0154      2.54623
      10.0662      2.55672
      10.1173      2.56409
      10.1686      2.56924
      10.2202      2.57237
      10.2720      2.57421
      10.3240      2.57504
      10.3763      2.57523
      10.4288      2.57526
      10.4815      2.57520
      10.5345      2.57554
      10.5878      2.57630
      10.6413      2.57767
      10.6950      2.57963
      10.7490      2.58202
      10.8032      2.58492
      10.8577      2.58803
      10.9124      2.59147
      10.9674      2.59509
      11.0226      2.59871
      11.0781      2.60246
      11.1339      2.60579
      11.1899      2.60924
      11.2462      2.61238
      11.3027      2.61543
      11.3595      2.61854
      11.4165      2.62139
      11.4738      2.62469
      11.5314      2.62778
      11.5893      2.63119
      11.6474      2.63477
      11.7057      2.63818
      11.7644      2.64195
      11.8233      2.64522
      11.8825      2.64880
      11.9420      2.65214
      12.0017      2.65545
      12.0617      2.65906
      12.1220      2.66232
      12.1826      2.66612
      12.2434      2.66971
      12.3045      2.67385
      12.3660      2.67845
      12.4277      2.68335
      12.4896      2.68923
      12.5519      2.69523
      12.6144      2.70223
      12.6773      2.70940
      12.7404      2.71697
      12.8038      2.72482
      12.8676      2.73220
      12.9316      2.73968
      12.9959      2.74620
      13.0605      2.75254
      13.1254      2.75803
      13.1906      2.76290
      13.2561      2.76737
      13.3219      2.77105
      13.3880      2.77473
      13.4544      2.77785
      13.5211      2.78116
      13.5881      2.78460
      13.6555      2.78830
      13.7231      2.79278
      13.7911      2.79777
      13.8594      2.80400
      13.9279      2.81112
      13.9968      2.81937
      14.0661      2.82867
      14.1356      2.83870
      14.2055      2.84958
      14.2757      2.86074
      14.3462      2.87215
      14.4170      2.88340
      14.4882      2.89419
      14.5597      2.90441
      14.6315      2.91371
      14.7036      2.92215
      14.7761      2.92958
      14.8489      2.93606
      14.9221      2.94186
      14.9956      2.94708
      15.0694      2.95218
      15.1436      2.95752
      15.2181      2.96343
      15.2930      2.97042
      15.3682      2.97832
      15.4437      2.98758
      15.5196      2.99804
      15.5959      3.00974
      15.6725      3.02281
      15.7494      3.03659
      15.8267      3.05156
      15.9044      3.06680
      15.9824      3.08271
      16.0608      3.09876
      16.1396      3.11485
      16.2187      3.13121
      16.2982      3.14714
      16.3780      3.16336
      16.4582      3.17908
      16.5388      3.19494
      16.6198      3.21080
      16.7011      3.22643
      16.7828      3.24230
      16.8649      3.25760
      16.9473      3.27299
      17.0302      3.28773
      17.1134      3.30210
      17.1970      3.31606
      17.2810      3.32911
      17.3654      3.34181
      17.4502      3.35336
      17.5353      3.36459
      17.6209      3.37512
      17.7068      3.38527
      17.7932      3.39530
      17.8799      3.40492
      17.9671      3.41478
      18.0546      3.42439
      18.1426      3.43425
      18.2309      3.44414
      18.3197      3.45400
      18.4089      3.46389
      18.4984      3.47330
      18.5884      3.48245
      18.6789      3.49083
      18.7697      3.49861
      18.8609      3.50559
      18.9526      3.51170
      19.0447      3.51707
      19.1372      3.52164
      19.2302      3.52573
      19.3236      3.52936
      19.4174      3.53288
      19.5116      3.53649
      19.6063      3.54047
      19.7014      3.54512
      19.7970      3.55070
      19.8930      3.55743
      19.9894      3.56545
      20.0863      3.57492
      20.1836      3.58585
      20.2814      3.59836
      20.3796      3.61232
      20.4783      3.62761
      20.5774      3.64406
      20.6770      3.66131
      20.7771      3.67929
      20.8776      3.69751
      20.9786      3.71597
      21.0800      3.73439
      21.1820      3.75265
      21.2844      3.77089
      21.3872      3.78885
      21.4905      3.80696
      21.5944      3.82515
      21.6986      3.84379
      21.8034      3.86312
      21.9087      3.88319
      22.0144      3.90456
      22.1206      3.92698
      22.2274      3.95092
      22.3346      3.97628
      22.4423      4.00307
      22.5505      4.03143
      22.6592      4.06096
      22.7684      4.09192
      22.8781      4.12382
      22.9883      4.15670
      23.0991      4.19033
      23.2103      4.22436
      23.3220      4.25896
      23.4343      4.29350
      23.5471      4.32822
      23.6604      4.36275
      23.7742      4.39700
      23.8886      4.43098
      24.0035      4.46431
      24.1189      4.49729
      24.2348      4.52952
      24.3513      4.56118
      24.4683      4.59219
      24.5859      4.62244
      24.7040      4.65209
      24.8226      4.68086
      24.9418      4.70899
      25.0615      4.73628
      25.1818      4.76280
      25.3027      4.78853
      25.4241      4.81339
      25.5461      4.83751
      25.6686      4.86072
      25.7917      4.88315
      25.9153      4.90478
      26.0396      4.92568
      26.1644      4.94585
      26.2898      4.96527
      26.4157      4.98397
      26.5423      5.00184
      26.6694      5.01884
      26.7971      5.03483
      26.9254      5.04979
      27.0543      5.06362
      27.1838      5.07633
      27.3139      5.08791
      27.4446      5.09849
      27.5759      5.10816
      27.7078      5.11714
      27.8403      5.12563
      27.9734      5.13385
      28.1072      5.14213
      28.2415      5.15056
      28.3765      5.15944
      28.5121      5.16873
      28.6483      5.17848
      28.7852      5.18864
      28.9226      5.19902
      29.0608      5.20974
      29.1995      5.22041
      29.3389      5.23126
      29.4789      5.24197
      29.6196      5.25272
      29.7610      5.26352
      29.9030      5.27430
      30.0456      5.28545
      30.1889      5.29672
      30.3329      5.30862
      30.4775      5.32101
      30.6228      5.33410
      30.7687      5.34803
      30.9154      5.36257
      31.0627      5.37805
      31.2107      5.39406
      31.3594      5.41083
      31.5087      5.42811
      31.6588      5.44580
      31.8095      5.46403
      31.9610      5.48237
      32.1131      5.50113
      32.2660      5.51990
      32.4195      5.53883
      32.5738      5.55782
      32.7287      5.57672
      32.8844      5.59572
      33.0408      5.61448
      33.1979      5.63323
      33.3558      5.65175
      33.5144      5.67009
      33.6737      5.68824
      33.8337      5.70605
      33.9945      5.72366
      34.1560      5.74084
      34.3183      5.75771
      34.4813      5.77416
      34.6451      5.79016
      34.8096      5.80574
      34.9749      5.82080
      35.1410      5.83543
      35.3078      5.84955
      35.4754      5.86322
      35.6438      5.87644
      35.8129      5.88919
      35.9828      5.90153
      36.1535      5.91341
      36.3250      5.92489
      36.4973      5.93596
      36.6704      5.94666
      36.8443      5.95698
      37.0189      5.96690
      37.1944      5.97644
      37.3707      5.98561
      37.5478      5.99444
      37.7258      6.00296
      37.9045      6.01120
      38.0841      6.01921
      38.2645      6.02701
      38.4457      6.03465
      38.6278      6.04216
      38.8107      6.04957
      38.9945      6.05693
      39.1791      6.06426
      39.3645      6.07159
      39.5509      6.07895
      39.7380      6.08634
      39.9261      6.09378
      40.1150      6.10127
      40.3048      6.10882
      40.4954      6.11644
      40.6869      6.12414
      40.8794      6.13192
      41.0727      6.13980
      41.2669      6.14777
      41.4620      6.15583
      41.6580      6.16400
      41.8549      6.17227
      42.0527      6.18065
      42.2514      6.18913
      42.4510      6.19773
      42.6516      6.20643
      42.8531      6.21524
      43.0555      6.22417
      43.2588      6.23320
      43.4631      6.24236
      43.6684      6.25162
      43.8745      6.26101
      44.0817      6.27051
      44.2898      6.28013
      44.4988      6.28988
      44.7088      6.29974
      44.9198      6.30972
      45.1318      6.31983
      45.3447      6.33007
      45.5586      6.34042
      45.7735      6.35091
      45.9894      6.36152
      46.2063      6.37226
      46.4242      6.38313
      46.6431      6.39412
      46.8630      6.40524
      47.0839      6.41650
      47.3059      6.42788
      47.5289      6.43939
      47.7528      6.45103
      47.9779      6.46280
      48.2040      6.47471
      48.4311      6.48674
      48.6592      6.49891
      48.8884      6.51122
      49.1187      6.52366
      49.3501      6.53623
      49.5825      6.54895
      49.8159      6.56179
      50.0505      6.57478
      50.2861      6.58791
      50.5229      6.60117
      50.7607      6.61457
      50.9996      6.62812
      51.2396      6.64180
      51.4808      6.65563
      51.7230      6.66960
      51.9663      6.68371
      52.2108      6.69796
      52.4564      6.71236
      52.7032      6.72690
      52.9511      6.74159
      53.2001      6.75642
      53.4503      6.77140
      53.7016      6.78653
      53.9541      6.80181
      54.2077      6.81723
      54.4626      6.83281
      54.7186      6.84854
      54.9758      6.86441
      55.2341      6.88044
      55.4937      6.89662
      55.7545      6.91295
      56.0164      6.92945
      56.2796      6.94609
      56.5440      6.96289
      56.8096      6.97984
      57.0765      6.99695
      57.3445      7.01422
      57.6138      7.03165
      57.8844      7.04924
      58.1562      7.06699
      58.4292      7.08491
      58.7035      7.10298
      58.9791      7.12122
      59.2560      7.13962
      59.5341      7.15818
      59.8135      7.17691
      60.0942      7.19580
      60.3762      7.21485
      60.6595      7.23408
      60.9441      7.25347
      61.2300      7.27303
      61.5173      7.29276
      61.8058      7.31266
      62.0957      7.33272
      62.3870      7.35297
      62.6796      7.37337
      62.9735      7.39396
      63.2688      7.41471
      63.5654      7.43564
      63.8634      7.45675
      64.1628      7.47802
      64.4636      7.49948
      64.7658      7.52111
      65.0694      7.54291
      65.3743      7.56490
      65.6807      7.58705
      65.9885      7.60938
      66.2977      7.63188
      66.6083      7.65457
      66.9204      7.67743
      67.2339      7.70047
      67.5488      7.72370
      67.8652      7.74711
      68.1831      7.77070
      68.5024      7.79448
      68.8232      7.81845
      69.1455      7.84259
      69.4693      7.86693
      69.7946      7.89144
      70.1214      7.91614
      70.4496      7.94103
      70.7794      7.96610
      71.1108      7.99137
      71.4436      8.01682
      71.7780      8.04246
      72.1139      8.06829
      72.4514      8.09432
      72.7904      8.12054
      73.1310      8.14695
      73.4732      8.17356
      73.8169      8.20037
      74.1623      8.22738
      74.5092      8.25461
      74.8578      8.28203
      75.2079      8.30966
      75.5597      8.33751
      75.9130      8.36555
      76.2681      8.39381
      76.6247      8.42228
      76.9830      8.45096
      77.3430      8.47985
      77.7046      8.50895
      78.0679      8.53826
      78.4328      8.56778
      78.7995      8.59751
      79.1678      8.62746
      79.5378      8.65761
      79.9096      8.68799
      80.2830      8.71857
      80.6582      8.74937
      81.0352      8.78039
      81.4138      8.81162
      81.7942      8.84307
      82.1764      8.87473
      82.5603      8.90661
      82.9460      8.93871
      83.3335      8.97103
      83.7227      9.00356
      84.1138      9.03632
      84.5067      9.06929
      84.9014      9.10249
      85.2979      9.13590
      85.6962      9.16954
      86.0964      9.20339
      86.4984      9.23747
      86.9023      9.27176
      87.3080      9.30627
      87.7156      9.34100
      88.1251      9.37595
      88.5365      9.41112
      88.9498      9.44653
      89.3649      9.48218
      89.7820      9.51810
      90.2011      9.55431
      90.6221      9.59083
      91.0450      9.62768
      91.4698      9.66493
      91.8967      9.70259
      92.3254      9.74073
      92.7562      9.77939
      93.1890      9.81861
      93.6237      9.85850
      94.0605      9.89907
      94.4993      9.94045
      94.9401      9.98270
      95.3829      10.0259
      95.8278      10.0702
      96.2747      10.1157
      96.7237      10.1625
      97.1748      10.2107
      97.6279      10.2605
      98.0832      10.3122
      98.5406      10.3658

